Sample Name, Sample-1
Time, March 10 14:55:36 2023
Operator, Smith
Lamp, 0
Slit,0.0
Scan From, 1100.0nm
Scan To, 190.0nm
Scan Step, 0.5nm
Sample Filter, 5
memo, 
WL(nm), Abs, T%
190.0, 2.4241, 0.38
190.5, 2.5930, 0.26
191.0, 2.5689, 0.27
191.5, 2.6218, 0.24
192.0, 2.6865, 0.21
192.5, 2.5995, 0.25
193.0, 2.6079, 0.25
193.5, 2.5893, 0.26
194.0, 2.6892, 0.20
194.5, 2.7446, 0.18
195.0, 2.7604, 0.17
195.5, 2.8636, 0.14
196.0, 2.8952, 0.13
196.5, 2.9539, 0.11
197.0, 2.9704, 0.11
197.5, 2.9458, 0.11
198.0, 2.8953, 0.13
198.5, 2.9132, 0.12
199.0, 2.8833, 0.13
199.5, 2.9424, 0.11
200.0, 3.0206, 0.10
200.5, 3.1619, 0.07
201.0, 3.2958, 0.05
201.5, 3.0643, 0.09
202.0, 3.1105, 0.08
202.5, 2.9747, 0.11
203.0, 2.9572, 0.11
203.5, 2.9848, 0.10
204.0, 2.9400, 0.11
204.5, 3.0659, 0.09
205.0, 3.1134, 0.08
205.5, 3.0888, 0.08
206.0, 3.2307, 0.06
206.5, 3.2082, 0.06
207.0, 3.0807, 0.08
207.5, 3.0994, 0.08
208.0, 3.0566, 0.09
208.5, 3.0526, 0.09
209.0, 3.0624, 0.09
209.5, 3.1550, 0.07
210.0, 3.1984, 0.06
210.5, 3.1807, 0.07
211.0, 3.2432, 0.06
211.5, 3.1486, 0.07
212.0, 3.0927, 0.08
212.5, 3.1344, 0.07
213.0, 3.0881, 0.08
213.5, 3.0707, 0.08
214.0, 3.0775, 0.08
214.5, 3.0552, 0.09
215.0, 3.1085, 0.08
215.5, 3.1206, 0.08
216.0, 3.0961, 0.08
216.5, 3.0415, 0.09
217.0, 2.9848, 0.10
217.5, 2.9428, 0.11
218.0, 2.9477, 0.11
218.5, 2.8733, 0.13
219.0, 2.8845, 0.13
219.5, 2.9235, 0.12
220.0, 2.8929, 0.13
220.5, 2.8838, 0.13
221.0, 2.8445, 0.14
221.5, 2.7985, 0.16
222.0, 2.8021, 0.16
222.5, 2.7424, 0.18
223.0, 2.7325, 0.19
223.5, 2.7021, 0.20
224.0, 2.6974, 0.20
224.5, 2.6849, 0.21
225.0, 2.6657, 0.22
225.5, 2.6142, 0.24
226.0, 2.5925, 0.26
226.5, 2.5581, 0.28
227.0, 2.5268, 0.30
227.5, 2.4909, 0.32
228.0, 2.4647, 0.34
228.5, 2.4509, 0.35
229.0, 2.4217, 0.38
229.5, 2.3985, 0.40
230.0, 2.3631, 0.43
230.5, 2.3263, 0.47
231.0, 2.2971, 0.50
231.5, 2.2507, 0.56
232.0, 2.2186, 0.60
232.5, 2.1837, 0.66
233.0, 2.1525, 0.70
233.5, 2.1350, 0.73
234.0, 2.1031, 0.79
234.5, 2.0742, 0.84
235.0, 2.0421, 0.91
235.5, 2.0157, 0.96
236.0, 1.9824, 1.04
236.5, 1.9522, 1.12
237.0, 1.9267, 1.18
237.5, 1.9064, 1.24
238.0, 1.8811, 1.31
238.5, 1.8576, 1.39
239.0, 1.8403, 1.44
239.5, 1.8223, 1.51
240.0, 1.8001, 1.58
240.5, 1.7809, 1.66
241.0, 1.7613, 1.73
241.5, 1.7460, 1.79
242.0, 1.7276, 1.87
242.5, 1.7146, 1.93
243.0, 1.7019, 1.99
243.5, 1.6879, 2.05
244.0, 1.6785, 2.10
244.5, 1.6682, 2.15
245.0, 1.6531, 2.22
245.5, 1.6425, 2.28
246.0, 1.6318, 2.33
246.5, 1.6222, 2.39
247.0, 1.6128, 2.44
247.5, 1.6036, 2.49
248.0, 1.5956, 2.54
248.5, 1.5879, 2.58
249.0, 1.5799, 2.63
249.5, 1.5721, 2.68
250.0, 1.5639, 2.73
250.5, 1.5562, 2.78
251.0, 1.5477, 2.83
251.5, 1.5409, 2.88
252.0, 1.5334, 2.93
252.5, 1.5272, 2.97
253.0, 1.5211, 3.01
253.5, 1.5168, 3.04
254.0, 1.5108, 3.08
254.5, 1.5049, 3.13
255.0, 1.5000, 3.16
255.5, 1.4923, 3.22
256.0, 1.4863, 3.26
256.5, 1.4821, 3.30
257.0, 1.4765, 3.34
257.5, 1.4732, 3.36
258.0, 1.4691, 3.40
258.5, 1.4657, 3.42
259.0, 1.4620, 3.45
259.5, 1.4567, 3.49
260.0, 1.4532, 3.52
260.5, 1.4476, 3.57
261.0, 1.4422, 3.61
261.5, 1.4389, 3.64
262.0, 1.4347, 3.68
262.5, 1.4326, 3.69
263.0, 1.4295, 3.72
263.5, 1.4266, 3.74
264.0, 1.4231, 3.78
264.5, 1.4200, 3.80
265.0, 1.4152, 3.84
265.5, 1.4115, 3.88
266.0, 1.4083, 3.91
266.5, 1.4053, 3.93
267.0, 1.4027, 3.96
267.5, 1.4002, 3.98
268.0, 1.3979, 4.00
268.5, 1.3948, 4.03
269.0, 1.3925, 4.05
269.5, 1.3886, 4.09
270.0, 1.3858, 4.11
270.5, 1.3813, 4.16
271.0, 1.3786, 4.18
271.5, 1.3760, 4.21
272.0, 1.3733, 4.23
272.5, 1.3712, 4.25
273.0, 1.3682, 4.28
273.5, 1.3662, 4.30
274.0, 1.3628, 4.34
274.5, 1.3598, 4.37
275.0, 1.3558, 4.41
275.5, 1.3522, 4.44
276.0, 1.3487, 4.48
276.5, 1.3457, 4.51
277.0, 1.3440, 4.53
277.5, 1.3408, 4.56
278.0, 1.3374, 4.60
278.5, 1.3347, 4.63
279.0, 1.3306, 4.67
279.5, 1.3269, 4.71
280.0, 1.3221, 4.76
280.5, 1.3182, 4.81
281.0, 1.3137, 4.86
281.5, 1.3109, 4.89
282.0, 1.3070, 4.93
282.5, 1.3034, 4.97
283.0, 1.2989, 5.02
283.5, 1.2959, 5.06
284.0, 1.2902, 5.13
284.5, 1.2849, 5.19
285.0, 1.2796, 5.25
285.5, 1.2732, 5.33
286.0, 1.2679, 5.40
286.5, 1.2629, 5.46
287.0, 1.2580, 5.52
287.5, 1.2524, 5.59
288.0, 1.2465, 5.67
288.5, 1.2409, 5.74
289.0, 1.2351, 5.82
289.5, 1.2289, 5.90
290.0, 1.2229, 5.99
290.5, 1.2170, 6.07
291.0, 1.2121, 6.14
291.5, 1.2066, 6.21
292.0, 1.2012, 6.29
292.5, 1.1952, 6.38
293.0, 1.1895, 6.46
293.5, 1.1840, 6.55
294.0, 1.1788, 6.63
294.5, 1.1722, 6.73
295.0, 1.1657, 6.83
295.5, 1.1607, 6.91
296.0, 1.1559, 6.98
296.5, 1.1510, 7.06
297.0, 1.1464, 7.14
297.5, 1.1413, 7.22
298.0, 1.1374, 7.29
298.5, 1.1316, 7.39
299.0, 1.1264, 7.47
299.5, 1.1221, 7.55
300.0, 1.1181, 7.62
300.5, 1.1132, 7.71
301.0, 1.1104, 7.76
301.5, 1.1062, 7.83
302.0, 1.1021, 7.91
302.5, 1.0989, 7.96
303.0, 1.0944, 8.05
303.5, 1.0906, 8.12
304.0, 1.0860, 8.20
304.5, 1.0823, 8.27
305.0, 1.0788, 8.34
305.5, 1.0752, 8.41
306.0, 1.0724, 8.47
306.5, 1.0686, 8.54
307.0, 1.0658, 8.59
307.5, 1.0621, 8.67
308.0, 1.0587, 8.74
308.5, 1.0549, 8.81
309.0, 1.0516, 8.88
309.5, 1.0480, 8.95
310.0, 1.0446, 9.02
310.5, 1.0421, 9.08
311.0, 1.0398, 9.13
311.5, 1.0361, 9.20
312.0, 1.0330, 9.27
312.5, 1.0300, 9.33
313.0, 1.0269, 9.40
313.5, 1.0236, 9.47
314.0, 1.0205, 9.54
314.5, 1.0179, 9.60
315.0, 1.0153, 9.65
315.5, 1.0122, 9.72
316.0, 1.0101, 9.77
316.5, 1.0073, 9.83
317.0, 1.0046, 9.89
317.5, 1.0015, 9.96
318.0, 0.9986, 10.03
318.5, 0.9961, 10.09
319.0, 0.9928, 10.17
319.5, 0.9894, 10.25
320.0, 0.9873, 10.30
320.5, 0.9848, 10.36
321.0, 0.9829, 10.40
321.5, 0.9800, 10.47
322.0, 0.9774, 10.53
322.5, 0.9742, 10.61
323.0, 0.9710, 10.69
323.5, 0.9687, 10.75
324.0, 0.9665, 10.80
324.5, 0.9633, 10.88
325.0, 0.9612, 10.94
325.5, 0.9596, 10.98
326.0, 0.9569, 11.04
326.5, 0.9541, 11.11
327.0, 0.9517, 11.18
327.5, 0.9490, 11.25
328.0, 0.9464, 11.31
328.5, 0.9436, 11.39
329.0, 0.9404, 11.47
329.5, 0.9386, 11.52
330.0, 0.9366, 11.57
330.5, 0.9344, 11.63
331.0, 0.9320, 11.69
331.5, 0.9295, 11.76
332.0, 0.9271, 11.83
332.5, 0.9242, 11.91
333.0, 0.9218, 11.97
333.5, 0.9193, 12.04
334.0, 0.9170, 12.11
334.5, 0.9145, 12.18
335.0, 0.9122, 12.24
335.5, 0.9101, 12.30
336.0, 0.9079, 12.36
336.5, 0.9058, 12.42
337.0, 0.9034, 12.49
337.5, 0.9007, 12.57
338.0, 0.8981, 12.65
338.5, 0.8958, 12.71
339.0, 0.8938, 12.77
339.5, 0.8901, 12.88
340.0, 0.8885, 12.93
340.5, 0.8864, 12.99
341.0, 0.8850, 13.03
341.5, 0.8828, 13.10
342.0, 0.8806, 13.16
342.5, 0.8782, 13.24
343.0, 0.8748, 13.34
343.5, 0.8728, 13.40
344.0, 0.8707, 13.47
344.5, 0.8688, 13.53
345.0, 0.8667, 13.59
345.5, 0.8652, 13.64
346.0, 0.8630, 13.71
346.5, 0.8611, 13.77
347.0, 0.8586, 13.85
347.5, 0.8565, 13.92
348.0, 0.8538, 14.00
348.5, 0.8517, 14.07
349.0, 0.8497, 14.13
349.5, 0.8479, 14.19
350.0, 0.8465, 14.24
350.5, 0.8443, 14.31
351.0, 0.8426, 14.37
351.5, 0.8408, 14.43
352.0, 0.8378, 14.53
352.5, 0.8359, 14.59
353.0, 0.8330, 14.69
353.5, 0.8314, 14.74
354.0, 0.8294, 14.81
354.5, 0.8277, 14.87
355.0, 0.8261, 14.92
355.5, 0.8241, 14.99
356.0, 0.8223, 15.05
356.5, 0.8201, 15.13
357.0, 0.8182, 15.20
357.5, 0.8160, 15.28
358.0, 0.8133, 15.37
358.5, 0.8119, 15.42
359.0, 0.8101, 15.48
359.5, 0.8082, 15.55
360.0, 0.8068, 15.60
360.5, 0.8049, 15.67
361.0, 0.8031, 15.74
361.5, 0.8008, 15.82
362.0, 0.7989, 15.89
362.5, 0.7961, 15.99
363.0, 0.7947, 16.04
363.5, 0.7928, 16.11
364.0, 0.7911, 16.18
364.5, 0.7895, 16.24
365.0, 0.7876, 16.31
365.5, 0.7859, 16.37
366.0, 0.7840, 16.45
366.5, 0.7821, 16.52
367.0, 0.7800, 16.60
367.5, 0.7781, 16.67
368.0, 0.7761, 16.74
368.5, 0.7742, 16.82
369.0, 0.7728, 16.87
369.5, 0.7718, 16.91
370.0, 0.7698, 16.99
370.5, 0.7670, 17.10
371.0, 0.7650, 17.18
371.5, 0.7632, 17.25
372.0, 0.7613, 17.32
372.5, 0.7594, 17.40
373.0, 0.7577, 17.47
373.5, 0.7564, 17.52
374.0, 0.7548, 17.59
374.5, 0.7532, 17.65
375.0, 0.7514, 17.72
375.5, 0.7498, 17.79
376.0, 0.7478, 17.87
376.5, 0.7460, 17.95
377.0, 0.7441, 18.02
377.5, 0.7426, 18.09
378.0, 0.7409, 18.16
378.5, 0.7392, 18.23
379.0, 0.7377, 18.29
379.5, 0.7361, 18.36
380.0, 0.7343, 18.44
380.5, 0.7325, 18.52
381.0, 0.7311, 18.57
381.5, 0.7290, 18.66
382.0, 0.7274, 18.73
382.5, 0.7259, 18.80
383.0, 0.7243, 18.87
383.5, 0.7227, 18.94
384.0, 0.7213, 19.00
384.5, 0.7197, 19.07
385.0, 0.7182, 19.13
385.5, 0.7163, 19.22
386.0, 0.7147, 19.29
386.5, 0.7129, 19.37
387.0, 0.7115, 19.43
387.5, 0.7098, 19.51
388.0, 0.7082, 19.58
388.5, 0.7069, 19.64
389.0, 0.7053, 19.71
389.5, 0.7037, 19.78
390.0, 0.7022, 19.85
390.5, 0.7010, 19.91
391.0, 0.6991, 19.99
391.5, 0.6975, 20.07
392.0, 0.6960, 20.14
392.5, 0.6947, 20.20
393.0, 0.6934, 20.26
393.5, 0.6916, 20.34
394.0, 0.6900, 20.42
394.5, 0.6885, 20.49
395.0, 0.6871, 20.56
395.5, 0.6857, 20.62
396.0, 0.6838, 20.71
396.5, 0.6823, 20.78
397.0, 0.6809, 20.85
397.5, 0.6798, 20.90
398.0, 0.6781, 20.99
398.5, 0.6767, 21.05
399.0, 0.6752, 21.13
399.5, 0.6737, 21.20
400.0, 0.6723, 21.27
400.5, 0.6707, 21.34
401.0, 0.6691, 21.42
401.5, 0.6678, 21.49
402.0, 0.6663, 21.56
402.5, 0.6650, 21.63
403.0, 0.6635, 21.70
403.5, 0.6622, 21.77
404.0, 0.6608, 21.84
404.5, 0.6596, 21.90
405.0, 0.6580, 21.98
405.5, 0.6564, 22.06
406.0, 0.6548, 22.14
406.5, 0.6535, 22.21
407.0, 0.6522, 22.27
407.5, 0.6509, 22.34
408.0, 0.6496, 22.41
408.5, 0.6481, 22.48
409.0, 0.6466, 22.56
409.5, 0.6455, 22.62
410.0, 0.6440, 22.70
410.5, 0.6426, 22.77
411.0, 0.6411, 22.85
411.5, 0.6398, 22.92
412.0, 0.6385, 22.99
412.5, 0.6372, 23.05
413.0, 0.6359, 23.12
413.5, 0.6344, 23.20
414.0, 0.6331, 23.28
414.5, 0.6318, 23.35
415.0, 0.6304, 23.42
415.5, 0.6292, 23.49
416.0, 0.6276, 23.57
416.5, 0.6263, 23.64
417.0, 0.6253, 23.70
417.5, 0.6238, 23.78
418.0, 0.6226, 23.84
418.5, 0.6213, 23.92
419.0, 0.6198, 24.00
419.5, 0.6186, 24.07
420.0, 0.6172, 24.14
420.5, 0.6160, 24.21
421.0, 0.6146, 24.29
421.5, 0.6135, 24.35
422.0, 0.6121, 24.43
422.5, 0.6110, 24.49
423.0, 0.6098, 24.56
423.5, 0.6084, 24.64
424.0, 0.6072, 24.71
424.5, 0.6059, 24.78
425.0, 0.6045, 24.86
425.5, 0.6032, 24.93
426.0, 0.6020, 25.00
426.5, 0.6009, 25.07
427.0, 0.5997, 25.14
427.5, 0.5985, 25.20
428.0, 0.5972, 25.28
428.5, 0.5961, 25.35
429.0, 0.5948, 25.42
429.5, 0.5934, 25.50
430.0, 0.5922, 25.57
430.5, 0.5910, 25.64
431.0, 0.5898, 25.72
431.5, 0.5886, 25.78
432.0, 0.5875, 25.85
432.5, 0.5864, 25.92
433.0, 0.5852, 25.99
433.5, 0.5840, 26.06
434.0, 0.5829, 26.13
434.5, 0.5817, 26.20
435.0, 0.5804, 26.28
435.5, 0.5792, 26.35
436.0, 0.5781, 26.42
436.5, 0.5770, 26.48
437.0, 0.5758, 26.56
437.5, 0.5746, 26.63
438.0, 0.5734, 26.70
438.5, 0.5723, 26.77
439.0, 0.5712, 26.84
439.5, 0.5700, 26.91
440.0, 0.5688, 26.99
440.5, 0.5677, 27.06
441.0, 0.5666, 27.13
441.5, 0.5655, 27.20
442.0, 0.5643, 27.27
442.5, 0.5632, 27.34
443.0, 0.5622, 27.40
443.5, 0.5608, 27.49
444.0, 0.5598, 27.56
444.5, 0.5585, 27.64
445.0, 0.5576, 27.70
445.5, 0.5565, 27.76
446.0, 0.5556, 27.83
446.5, 0.5544, 27.90
447.0, 0.5534, 27.96
447.5, 0.5522, 28.04
448.0, 0.5511, 28.11
448.5, 0.5500, 28.18
449.0, 0.5487, 28.27
449.5, 0.5476, 28.34
450.0, 0.5470, 28.38
450.5, 0.5455, 28.48
451.0, 0.5442, 28.56
451.5, 0.5433, 28.62
452.0, 0.5421, 28.70
452.5, 0.5411, 28.77
453.0, 0.5399, 28.85
453.5, 0.5391, 28.90
454.0, 0.5382, 28.96
454.5, 0.5371, 29.03
455.0, 0.5360, 29.11
455.5, 0.5348, 29.19
456.0, 0.5338, 29.25
456.5, 0.5328, 29.32
457.0, 0.5316, 29.40
457.5, 0.5306, 29.47
458.0, 0.5298, 29.53
458.5, 0.5288, 29.59
459.0, 0.5277, 29.67
459.5, 0.5265, 29.75
460.0, 0.5255, 29.82
460.5, 0.5245, 29.89
461.0, 0.5234, 29.96
461.5, 0.5225, 30.03
462.0, 0.5214, 30.10
462.5, 0.5205, 30.17
463.0, 0.5194, 30.24
463.5, 0.5185, 30.31
464.0, 0.5174, 30.38
464.5, 0.5164, 30.45
465.0, 0.5156, 30.51
465.5, 0.5144, 30.59
466.0, 0.5134, 30.66
466.5, 0.5124, 30.73
467.0, 0.5115, 30.79
467.5, 0.5105, 30.87
468.0, 0.5095, 30.94
468.5, 0.5087, 30.99
469.0, 0.5077, 31.07
469.5, 0.5067, 31.14
470.0, 0.5057, 31.21
470.5, 0.5048, 31.27
471.0, 0.5039, 31.34
471.5, 0.5029, 31.41
472.0, 0.5019, 31.48
472.5, 0.5010, 31.55
473.0, 0.5002, 31.61
473.5, 0.4991, 31.69
474.0, 0.4980, 31.77
474.5, 0.4972, 31.83
475.0, 0.4961, 31.91
475.5, 0.4952, 31.97
476.0, 0.4943, 32.04
476.5, 0.4934, 32.11
477.0, 0.4924, 32.18
477.5, 0.4916, 32.24
478.0, 0.4906, 32.31
478.5, 0.4898, 32.38
479.0, 0.4889, 32.44
479.5, 0.4879, 32.52
480.0, 0.4869, 32.59
480.5, 0.4860, 32.66
481.0, 0.4851, 32.73
481.5, 0.4842, 32.80
482.0, 0.4833, 32.86
482.5, 0.4825, 32.93
483.0, 0.4816, 32.99
483.5, 0.4806, 33.07
484.0, 0.4797, 33.14
484.5, 0.4787, 33.21
485.0, 0.4779, 33.28
485.5, 0.4770, 33.34
486.0, 0.4761, 33.41
486.5, 0.4752, 33.48
487.0, 0.4745, 33.54
487.5, 0.4736, 33.61
488.0, 0.4727, 33.68
488.5, 0.4719, 33.73
489.0, 0.4709, 33.81
489.5, 0.4701, 33.87
490.0, 0.4692, 33.95
490.5, 0.4684, 34.01
491.0, 0.4674, 34.08
491.5, 0.4665, 34.16
492.0, 0.4658, 34.21
492.5, 0.4650, 34.28
493.0, 0.4642, 34.34
493.5, 0.4633, 34.41
494.0, 0.4624, 34.48
494.5, 0.4615, 34.55
495.0, 0.4607, 34.62
495.5, 0.4599, 34.68
496.0, 0.4591, 34.75
496.5, 0.4581, 34.83
497.0, 0.4575, 34.88
497.5, 0.4565, 34.96
498.0, 0.4557, 35.02
498.5, 0.4548, 35.09
499.0, 0.4539, 35.16
499.5, 0.4531, 35.23
500.0, 0.4523, 35.30
500.5, 0.4515, 35.36
501.0, 0.4508, 35.42
501.5, 0.4500, 35.48
502.0, 0.4491, 35.55
502.5, 0.4483, 35.62
503.0, 0.4475, 35.69
503.5, 0.4466, 35.76
504.0, 0.4458, 35.82
504.5, 0.4451, 35.89
505.0, 0.4444, 35.95
505.5, 0.4435, 36.01
506.0, 0.4428, 36.08
506.5, 0.4423, 36.12
507.0, 0.4414, 36.19
507.5, 0.4408, 36.24
508.0, 0.4398, 36.33
508.5, 0.4390, 36.39
509.0, 0.4382, 36.46
509.5, 0.4373, 36.53
510.0, 0.4368, 36.58
510.5, 0.4361, 36.63
511.0, 0.4351, 36.72
511.5, 0.4345, 36.77
512.0, 0.4337, 36.84
512.5, 0.4329, 36.90
513.0, 0.4322, 36.96
513.5, 0.4314, 37.04
514.0, 0.4305, 37.11
514.5, 0.4297, 37.18
515.0, 0.4291, 37.23
515.5, 0.4284, 37.29
516.0, 0.4276, 37.36
516.5, 0.4267, 37.44
517.0, 0.4262, 37.48
517.5, 0.4253, 37.56
518.0, 0.4246, 37.62
518.5, 0.4238, 37.68
519.0, 0.4232, 37.74
519.5, 0.4225, 37.80
520.0, 0.4217, 37.87
520.5, 0.4209, 37.94
521.0, 0.4202, 38.01
521.5, 0.4196, 38.06
522.0, 0.4188, 38.13
522.5, 0.4181, 38.18
523.0, 0.4173, 38.25
523.5, 0.4166, 38.32
524.0, 0.4159, 38.38
524.5, 0.4151, 38.45
525.0, 0.4145, 38.50
525.5, 0.4137, 38.58
526.0, 0.4130, 38.64
526.5, 0.4123, 38.70
527.0, 0.4116, 38.76
527.5, 0.4109, 38.83
528.0, 0.4102, 38.89
528.5, 0.4094, 38.95
529.0, 0.4089, 39.01
529.5, 0.4082, 39.06
530.0, 0.4076, 39.12
530.5, 0.4069, 39.19
531.0, 0.4060, 39.27
531.5, 0.4053, 39.33
532.0, 0.4046, 39.39
532.5, 0.4040, 39.45
533.0, 0.4033, 39.51
533.5, 0.4026, 39.57
534.0, 0.4019, 39.64
534.5, 0.4013, 39.69
535.0, 0.4006, 39.75
535.5, 0.3997, 39.83
536.0, 0.3991, 39.89
536.5, 0.3985, 39.95
537.0, 0.3979, 40.00
537.5, 0.3971, 40.08
538.0, 0.3964, 40.14
538.5, 0.3956, 40.21
539.0, 0.3952, 40.26
539.5, 0.3944, 40.32
540.0, 0.3937, 40.39
540.5, 0.3931, 40.45
541.0, 0.3925, 40.51
541.5, 0.3918, 40.57
542.0, 0.3913, 40.61
542.5, 0.3905, 40.69
543.0, 0.3899, 40.75
543.5, 0.3892, 40.81
544.0, 0.3885, 40.88
544.5, 0.3880, 40.92
545.0, 0.3873, 40.99
545.5, 0.3867, 41.05
546.0, 0.3860, 41.11
546.5, 0.3854, 41.17
547.0, 0.3848, 41.23
547.5, 0.3842, 41.29
548.0, 0.3835, 41.35
548.5, 0.3829, 41.41
549.0, 0.3822, 41.47
549.5, 0.3817, 41.53
550.0, 0.3810, 41.59
550.5, 0.3804, 41.65
551.0, 0.3797, 41.71
551.5, 0.3791, 41.78
552.0, 0.3784, 41.84
552.5, 0.3778, 41.90
553.0, 0.3772, 41.95
553.5, 0.3766, 42.01
554.0, 0.3761, 42.06
554.5, 0.3754, 42.13
555.0, 0.3749, 42.18
555.5, 0.3742, 42.25
556.0, 0.3737, 42.30
556.5, 0.3731, 42.36
557.0, 0.3724, 42.43
557.5, 0.3718, 42.48
558.0, 0.3712, 42.54
558.5, 0.3706, 42.60
559.0, 0.3700, 42.66
559.5, 0.3694, 42.71
560.0, 0.3689, 42.77
560.5, 0.3682, 42.84
561.0, 0.3675, 42.90
561.5, 0.3670, 42.96
562.0, 0.3664, 43.01
562.5, 0.3657, 43.08
563.0, 0.3652, 43.13
563.5, 0.3647, 43.18
564.0, 0.3640, 43.25
564.5, 0.3635, 43.30
565.0, 0.3630, 43.35
565.5, 0.3623, 43.42
566.0, 0.3618, 43.48
566.5, 0.3612, 43.53
567.0, 0.3607, 43.58
567.5, 0.3600, 43.65
568.0, 0.3596, 43.70
568.5, 0.3589, 43.76
569.0, 0.3583, 43.82
569.5, 0.3578, 43.88
570.0, 0.3573, 43.93
570.5, 0.3567, 43.99
571.0, 0.3560, 44.06
571.5, 0.3555, 44.11
572.0, 0.3549, 44.16
572.5, 0.3544, 44.22
573.0, 0.3538, 44.28
573.5, 0.3532, 44.34
574.0, 0.3527, 44.40
574.5, 0.3523, 44.44
575.0, 0.3516, 44.50
575.5, 0.3511, 44.56
576.0, 0.3506, 44.61
576.5, 0.3499, 44.68
577.0, 0.3493, 44.74
577.5, 0.3488, 44.79
578.0, 0.3483, 44.84
578.5, 0.3471, 44.96
579.0, 0.3466, 45.02
579.5, 0.3462, 45.06
580.0, 0.3458, 45.11
580.5, 0.3452, 45.16
581.0, 0.3446, 45.22
581.5, 0.3441, 45.28
582.0, 0.3436, 45.34
582.5, 0.3431, 45.39
583.0, 0.3426, 45.44
583.5, 0.3421, 45.49
584.0, 0.3416, 45.54
584.5, 0.3410, 45.60
585.0, 0.3405, 45.65
585.5, 0.3400, 45.71
586.0, 0.3395, 45.76
586.5, 0.3390, 45.82
587.0, 0.3384, 45.88
587.5, 0.3381, 45.91
588.0, 0.3376, 45.96
588.5, 0.3371, 46.01
589.0, 0.3365, 46.07
589.5, 0.3361, 46.12
590.0, 0.3355, 46.18
590.5, 0.3351, 46.23
591.0, 0.3346, 46.28
591.5, 0.3340, 46.35
592.0, 0.3336, 46.39
592.5, 0.3331, 46.45
593.0, 0.3324, 46.52
593.5, 0.3319, 46.57
594.0, 0.3314, 46.62
594.5, 0.3307, 46.70
595.0, 0.3303, 46.74
595.5, 0.3297, 46.80
596.0, 0.3294, 46.84
596.5, 0.3288, 46.91
597.0, 0.3284, 46.95
597.5, 0.3278, 47.02
598.0, 0.3274, 47.05
598.5, 0.3269, 47.11
599.0, 0.3263, 47.18
599.5, 0.3259, 47.22
600.0, 0.3254, 47.27
600.5, 0.3249, 47.33
601.0, 0.3245, 47.37
601.5, 0.3240, 47.43
602.0, 0.3235, 47.47
602.5, 0.3230, 47.53
603.0, 0.3226, 47.58
603.5, 0.3220, 47.65
604.0, 0.3216, 47.69
604.5, 0.3210, 47.75
605.0, 0.3206, 47.80
605.5, 0.3201, 47.85
606.0, 0.3198, 47.89
606.5, 0.3192, 47.96
607.0, 0.3187, 48.01
607.5, 0.3181, 48.07
608.0, 0.3178, 48.10
608.5, 0.3172, 48.17
609.0, 0.3168, 48.22
609.5, 0.3164, 48.26
610.0, 0.3159, 48.31
610.5, 0.3154, 48.37
611.0, 0.3149, 48.43
611.5, 0.3146, 48.46
612.0, 0.3140, 48.53
612.5, 0.3136, 48.58
613.0, 0.3131, 48.62
613.5, 0.3126, 48.68
614.0, 0.3122, 48.73
614.5, 0.3119, 48.77
615.0, 0.3113, 48.83
615.5, 0.3108, 48.89
616.0, 0.3104, 48.93
616.5, 0.3100, 48.98
617.0, 0.3095, 49.04
617.5, 0.3089, 49.10
618.0, 0.3086, 49.14
618.5, 0.3081, 49.20
619.0, 0.3076, 49.25
619.5, 0.3072, 49.29
620.0, 0.3067, 49.35
620.5, 0.3064, 49.39
621.0, 0.3060, 49.44
621.5, 0.3054, 49.50
622.0, 0.3049, 49.55
622.5, 0.3045, 49.60
623.0, 0.3040, 49.66
623.5, 0.3037, 49.70
624.0, 0.3032, 49.75
624.5, 0.3028, 49.80
625.0, 0.3024, 49.84
625.5, 0.3020, 49.89
626.0, 0.3015, 49.95
626.5, 0.3010, 50.00
627.0, 0.3006, 50.05
627.5, 0.3001, 50.11
628.0, 0.2998, 50.15
628.5, 0.2993, 50.20
629.0, 0.2988, 50.25
629.5, 0.2985, 50.30
630.0, 0.2981, 50.34
630.5, 0.2976, 50.40
631.0, 0.2972, 50.44
631.5, 0.2968, 50.49
632.0, 0.2963, 50.55
632.5, 0.2959, 50.60
633.0, 0.2955, 50.64
633.5, 0.2951, 50.69
634.0, 0.2946, 50.75
634.5, 0.2942, 50.79
635.0, 0.2937, 50.85
635.5, 0.2935, 50.88
636.0, 0.2930, 50.94
636.5, 0.2926, 50.98
637.0, 0.2921, 51.04
637.5, 0.2918, 51.07
638.0, 0.2912, 51.14
638.5, 0.2909, 51.18
639.0, 0.2905, 51.22
639.5, 0.2902, 51.26
640.0, 0.2897, 51.32
640.5, 0.2892, 51.38
641.0, 0.2888, 51.43
641.5, 0.2883, 51.48
642.0, 0.2881, 51.51
642.5, 0.2877, 51.56
643.0, 0.2872, 51.62
643.5, 0.2869, 51.66
644.0, 0.2864, 51.71
644.5, 0.2860, 51.76
645.0, 0.2856, 51.81
645.5, 0.2853, 51.85
646.0, 0.2849, 51.90
646.5, 0.2844, 51.95
647.0, 0.2840, 51.99
647.5, 0.2836, 52.05
648.0, 0.2832, 52.10
648.5, 0.2829, 52.13
649.0, 0.2825, 52.18
649.5, 0.2821, 52.23
650.0, 0.2818, 52.27
650.5, 0.2814, 52.31
651.0, 0.2809, 52.38
651.5, 0.2805, 52.42
652.0, 0.2801, 52.47
652.5, 0.2797, 52.52
653.0, 0.2793, 52.56
653.5, 0.2790, 52.60
654.0, 0.2786, 52.65
654.5, 0.2783, 52.69
655.0, 0.2779, 52.74
655.5, 0.2775, 52.79
656.0, 0.2770, 52.85
656.5, 0.2766, 52.89
657.0, 0.2764, 52.92
657.5, 0.2759, 52.97
658.0, 0.2755, 53.03
658.5, 0.2752, 53.07
659.0, 0.2748, 53.12
659.5, 0.2744, 53.16
660.0, 0.2740, 53.21
660.5, 0.2737, 53.24
661.0, 0.2734, 53.29
661.5, 0.2730, 53.33
662.0, 0.2726, 53.38
662.5, 0.2722, 53.43
663.0, 0.2718, 53.48
663.5, 0.2715, 53.51
664.0, 0.2711, 53.56
664.5, 0.2709, 53.59
665.0, 0.2703, 53.66
665.5, 0.2700, 53.70
666.0, 0.2696, 53.75
666.5, 0.2693, 53.80
667.0, 0.2689, 53.84
667.5, 0.2686, 53.88
668.0, 0.2682, 53.92
668.5, 0.2679, 53.97
669.0, 0.2676, 54.00
669.5, 0.2673, 54.04
670.0, 0.2668, 54.11
670.5, 0.2664, 54.15
671.0, 0.2661, 54.19
671.5, 0.2657, 54.24
672.0, 0.2654, 54.28
672.5, 0.2650, 54.32
673.0, 0.2646, 54.37
673.5, 0.2643, 54.41
674.0, 0.2640, 54.45
674.5, 0.2637, 54.49
675.0, 0.2633, 54.54
675.5, 0.2628, 54.60
676.0, 0.2625, 54.64
676.5, 0.2622, 54.68
677.0, 0.2618, 54.72
677.5, 0.2615, 54.76
678.0, 0.2612, 54.81
678.5, 0.2608, 54.85
679.0, 0.2605, 54.89
679.5, 0.2601, 54.94
680.0, 0.2598, 54.97
680.5, 0.2593, 55.04
681.0, 0.2591, 55.06
681.5, 0.2587, 55.12
682.0, 0.2584, 55.16
682.5, 0.2580, 55.21
683.0, 0.2577, 55.25
683.5, 0.2573, 55.29
684.0, 0.2571, 55.32
684.5, 0.2567, 55.38
685.0, 0.2564, 55.42
685.5, 0.2560, 55.46
686.0, 0.2557, 55.50
686.5, 0.2554, 55.54
687.0, 0.2551, 55.58
687.5, 0.2547, 55.63
688.0, 0.2543, 55.69
688.5, 0.2541, 55.71
689.0, 0.2537, 55.75
689.5, 0.2534, 55.80
690.0, 0.2530, 55.85
690.5, 0.2527, 55.89
691.0, 0.2524, 55.93
691.5, 0.2521, 55.96
692.0, 0.2518, 56.00
692.5, 0.2515, 56.04
693.0, 0.2511, 56.09
693.5, 0.2508, 56.13
694.0, 0.2505, 56.17
694.5, 0.2501, 56.22
695.0, 0.2498, 56.26
695.5, 0.2495, 56.30
696.0, 0.2492, 56.34
696.5, 0.2489, 56.38
697.0, 0.2486, 56.41
697.5, 0.2483, 56.45
698.0, 0.2479, 56.51
698.5, 0.2476, 56.54
699.0, 0.2473, 56.59
699.5, 0.2470, 56.63
700.0, 0.2467, 56.67
700.5, 0.2464, 56.71
701.0, 0.2460, 56.75
701.5, 0.2457, 56.79
702.0, 0.2454, 56.83
702.5, 0.2451, 56.87
703.0, 0.2447, 56.92
703.5, 0.2445, 56.95
704.0, 0.2442, 56.99
704.5, 0.2439, 57.03
705.0, 0.2436, 57.07
705.5, 0.2433, 57.11
706.0, 0.2430, 57.15
706.5, 0.2427, 57.19
707.0, 0.2423, 57.24
707.5, 0.2421, 57.27
708.0, 0.2418, 57.31
708.5, 0.2415, 57.35
709.0, 0.2412, 57.39
709.5, 0.2408, 57.44
710.0, 0.2406, 57.47
710.5, 0.2396, 57.60
711.0, 0.2393, 57.63
711.5, 0.2390, 57.68
712.0, 0.2387, 57.72
712.5, 0.2384, 57.76
713.0, 0.2382, 57.79
713.5, 0.2379, 57.83
714.0, 0.2376, 57.87
714.5, 0.2373, 57.91
715.0, 0.2370, 57.94
715.5, 0.2368, 57.97
716.0, 0.2364, 58.02
716.5, 0.2362, 58.05
717.0, 0.2359, 58.08
717.5, 0.2356, 58.13
718.0, 0.2353, 58.16
718.5, 0.2351, 58.20
719.0, 0.2348, 58.24
719.5, 0.2345, 58.28
720.0, 0.2342, 58.31
720.5, 0.2340, 58.35
721.0, 0.2337, 58.38
721.5, 0.2335, 58.41
722.0, 0.2332, 58.45
722.5, 0.2329, 58.49
723.0, 0.2327, 58.53
723.5, 0.2324, 58.56
724.0, 0.2321, 58.60
724.5, 0.2319, 58.63
725.0, 0.2316, 58.66
725.5, 0.2314, 58.70
726.0, 0.2311, 58.73
726.5, 0.2308, 58.77
727.0, 0.2306, 58.81
727.5, 0.2304, 58.84
728.0, 0.2301, 58.87
728.5, 0.2297, 58.92
729.0, 0.2296, 58.94
729.5, 0.2293, 58.98
730.0, 0.2291, 59.01
730.5, 0.2288, 59.05
731.0, 0.2286, 59.08
731.5, 0.2283, 59.12
732.0, 0.2281, 59.15
732.5, 0.2278, 59.18
733.0, 0.2275, 59.22
733.5, 0.2274, 59.24
734.0, 0.2271, 59.28
734.5, 0.2269, 59.31
735.0, 0.2266, 59.35
735.5, 0.2264, 59.37
736.0, 0.2261, 59.41
736.5, 0.2258, 59.45
737.0, 0.2257, 59.47
737.5, 0.2253, 59.53
738.0, 0.2251, 59.55
738.5, 0.2248, 59.60
739.0, 0.2245, 59.63
739.5, 0.2243, 59.66
740.0, 0.2240, 59.70
740.5, 0.2237, 59.74
741.0, 0.2235, 59.77
741.5, 0.2232, 59.81
742.0, 0.2230, 59.84
742.5, 0.2227, 59.88
743.0, 0.2224, 59.92
743.5, 0.2222, 59.95
744.0, 0.2219, 59.99
744.5, 0.2217, 60.01
745.0, 0.2215, 60.05
745.5, 0.2212, 60.09
746.0, 0.2210, 60.12
746.5, 0.2207, 60.16
747.0, 0.2205, 60.19
747.5, 0.2201, 60.24
748.0, 0.2198, 60.28
748.5, 0.2195, 60.32
749.0, 0.2194, 60.34
749.5, 0.2192, 60.37
750.0, 0.2188, 60.43
750.5, 0.2186, 60.45
751.0, 0.2183, 60.49
751.5, 0.2181, 60.51
752.0, 0.2178, 60.56
752.5, 0.2175, 60.60
753.0, 0.2173, 60.64
753.5, 0.2170, 60.67
754.0, 0.2169, 60.69
754.5, 0.2165, 60.74
755.0, 0.2164, 60.75
755.5, 0.2160, 60.81
756.0, 0.2158, 60.84
756.5, 0.2156, 60.87
757.0, 0.2153, 60.91
757.5, 0.2150, 60.95
758.0, 0.2148, 60.98
758.5, 0.2145, 61.02
759.0, 0.2143, 61.06
759.5, 0.2141, 61.08
760.0, 0.2138, 61.12
760.5, 0.2137, 61.14
761.0, 0.2133, 61.19
761.5, 0.2131, 61.22
762.0, 0.2128, 61.27
762.5, 0.2126, 61.29
763.0, 0.2123, 61.33
763.5, 0.2121, 61.37
764.0, 0.2118, 61.40
764.5, 0.2116, 61.44
765.0, 0.2113, 61.47
765.5, 0.2110, 61.52
766.0, 0.2109, 61.54
766.5, 0.2106, 61.58
767.0, 0.2103, 61.61
767.5, 0.2100, 61.66
768.0, 0.2099, 61.68
768.5, 0.2096, 61.72
769.0, 0.2093, 61.76
769.5, 0.2092, 61.78
770.0, 0.2090, 61.81
770.5, 0.2086, 61.85
771.0, 0.2085, 61.88
771.5, 0.2082, 61.92
772.0, 0.2079, 61.96
772.5, 0.2077, 61.99
773.0, 0.2074, 62.03
773.5, 0.2072, 62.06
774.0, 0.2070, 62.08
774.5, 0.2068, 62.12
775.0, 0.2064, 62.17
775.5, 0.2062, 62.20
776.0, 0.2060, 62.24
776.5, 0.2057, 62.27
777.0, 0.2055, 62.30
777.5, 0.2052, 62.34
778.0, 0.2050, 62.37
778.5, 0.2048, 62.41
779.0, 0.2046, 62.42
779.5, 0.2044, 62.47
780.0, 0.2041, 62.51
780.5, 0.2038, 62.55
781.0, 0.2036, 62.57
781.5, 0.2034, 62.61
782.0, 0.2031, 62.64
782.5, 0.2028, 62.69
783.0, 0.2027, 62.71
783.5, 0.2026, 62.73
784.0, 0.2022, 62.78
784.5, 0.2020, 62.81
785.0, 0.2017, 62.85
785.5, 0.2016, 62.87
786.0, 0.2012, 62.93
786.5, 0.2011, 62.94
787.0, 0.2008, 62.98
787.5, 0.2006, 63.01
788.0, 0.2004, 63.04
788.5, 0.2001, 63.08
789.0, 0.2000, 63.10
789.5, 0.1997, 63.14
790.0, 0.1995, 63.17
790.5, 0.1992, 63.22
791.0, 0.1990, 63.24
791.5, 0.1987, 63.28
792.0, 0.1985, 63.31
792.5, 0.1983, 63.34
793.0, 0.1981, 63.37
793.5, 0.1980, 63.39
794.0, 0.1977, 63.43
794.5, 0.1975, 63.46
795.0, 0.1973, 63.50
795.5, 0.1970, 63.53
796.0, 0.1968, 63.56
796.5, 0.1966, 63.60
797.0, 0.1963, 63.63
797.5, 0.1962, 63.66
798.0, 0.1959, 63.69
798.5, 0.1957, 63.72
799.0, 0.1954, 63.76
799.5, 0.1953, 63.79
800.0, 0.1950, 63.82
800.5, 0.1940, 63.98
801.0, 0.1939, 63.99
801.5, 0.1935, 64.04
802.0, 0.1934, 64.06
802.5, 0.1932, 64.09
803.0, 0.1931, 64.11
803.5, 0.1930, 64.13
804.0, 0.1927, 64.16
804.5, 0.1925, 64.19
805.0, 0.1923, 64.23
805.5, 0.1921, 64.26
806.0, 0.1920, 64.27
806.5, 0.1917, 64.31
807.0, 0.1916, 64.33
807.5, 0.1914, 64.36
808.0, 0.1913, 64.37
808.5, 0.1911, 64.41
809.0, 0.1908, 64.44
809.5, 0.1906, 64.47
810.0, 0.1905, 64.50
810.5, 0.1902, 64.54
811.0, 0.1900, 64.56
811.5, 0.1899, 64.59
812.0, 0.1897, 64.61
812.5, 0.1895, 64.63
813.0, 0.1894, 64.66
813.5, 0.1891, 64.70
814.0, 0.1890, 64.72
814.5, 0.1887, 64.76
815.0, 0.1885, 64.78
815.5, 0.1883, 64.82
816.0, 0.1881, 64.84
816.5, 0.1879, 64.88
817.0, 0.1878, 64.89
817.5, 0.1876, 64.92
818.0, 0.1874, 64.95
818.5, 0.1873, 64.97
819.0, 0.1870, 65.01
819.5, 0.1869, 65.03
820.0, 0.1866, 65.07
820.5, 0.1865, 65.08
821.0, 0.1863, 65.12
821.5, 0.1861, 65.14
822.0, 0.1859, 65.18
822.5, 0.1857, 65.20
823.0, 0.1855, 65.24
823.5, 0.1853, 65.27
824.0, 0.1853, 65.27
824.5, 0.1849, 65.33
825.0, 0.1849, 65.33
825.5, 0.1846, 65.37
826.0, 0.1845, 65.38
826.5, 0.1844, 65.41
827.0, 0.1842, 65.43
827.5, 0.1841, 65.45
828.0, 0.1839, 65.48
828.5, 0.1836, 65.52
829.0, 0.1835, 65.53
829.5, 0.1833, 65.56
830.0, 0.1832, 65.59
830.5, 0.1830, 65.61
831.0, 0.1828, 65.64
831.5, 0.1827, 65.65
832.0, 0.1826, 65.68
832.5, 0.1825, 65.69
833.0, 0.1823, 65.72
833.5, 0.1821, 65.75
834.0, 0.1819, 65.78
834.5, 0.1817, 65.81
835.0, 0.1816, 65.83
835.5, 0.1813, 65.87
836.0, 0.1812, 65.88
836.5, 0.1810, 65.91
837.0, 0.1809, 65.93
837.5, 0.1807, 65.96
838.0, 0.1805, 65.99
838.5, 0.1803, 66.02
839.0, 0.1801, 66.06
839.5, 0.1800, 66.07
840.0, 0.1797, 66.11
840.5, 0.1796, 66.14
841.0, 0.1794, 66.15
841.5, 0.1793, 66.18
842.0, 0.1793, 66.18
842.5, 0.1790, 66.22
843.0, 0.1788, 66.26
843.5, 0.1786, 66.28
844.0, 0.1785, 66.30
844.5, 0.1783, 66.33
845.0, 0.1781, 66.37
845.5, 0.1779, 66.39
846.0, 0.1778, 66.41
846.5, 0.1776, 66.43
847.0, 0.1775, 66.45
847.5, 0.1773, 66.48
848.0, 0.1771, 66.51
848.5, 0.1769, 66.55
849.0, 0.1768, 66.56
849.5, 0.1764, 66.61
850.0, 0.1764, 66.62
850.5, 0.1759, 66.69
851.0, 0.1758, 66.71
851.5, 0.1756, 66.74
852.0, 0.1755, 66.76
852.5, 0.1753, 66.78
853.0, 0.1752, 66.81
853.5, 0.1750, 66.84
854.0, 0.1749, 66.85
854.5, 0.1747, 66.88
855.0, 0.1745, 66.91
855.5, 0.1743, 66.94
856.0, 0.1741, 66.97
856.5, 0.1740, 66.99
857.0, 0.1738, 67.02
857.5, 0.1736, 67.04
858.0, 0.1735, 67.07
858.5, 0.1734, 67.08
859.0, 0.1731, 67.12
859.5, 0.1731, 67.13
860.0, 0.1728, 67.18
860.5, 0.1727, 67.19
861.0, 0.1725, 67.22
861.5, 0.1724, 67.24
862.0, 0.1722, 67.26
862.5, 0.1720, 67.30
863.0, 0.1719, 67.31
863.5, 0.1717, 67.34
864.0, 0.1716, 67.36
864.5, 0.1714, 67.39
865.0, 0.1713, 67.41
865.5, 0.1711, 67.44
866.0, 0.1709, 67.47
866.5, 0.1708, 67.49
867.0, 0.1707, 67.50
867.5, 0.1705, 67.53
868.0, 0.1703, 67.56
868.5, 0.1702, 67.58
869.0, 0.1700, 67.61
869.5, 0.1699, 67.63
870.0, 0.1697, 67.66
870.5, 0.1696, 67.68
871.0, 0.1694, 67.71
871.5, 0.1693, 67.72
872.0, 0.1691, 67.75
872.5, 0.1689, 67.78
873.0, 0.1688, 67.80
873.5, 0.1686, 67.82
874.0, 0.1685, 67.84
874.5, 0.1684, 67.87
875.0, 0.1682, 67.89
875.5, 0.1680, 67.92
876.0, 0.1679, 67.94
876.5, 0.1677, 67.96
877.0, 0.1676, 67.99
877.5, 0.1675, 68.00
878.0, 0.1674, 68.02
878.5, 0.1672, 68.04
879.0, 0.1670, 68.07
879.5, 0.1669, 68.10
880.0, 0.1667, 68.12
880.5, 0.1665, 68.15
881.0, 0.1664, 68.17
881.5, 0.1663, 68.19
882.0, 0.1661, 68.22
882.5, 0.1660, 68.23
883.0, 0.1658, 68.27
883.5, 0.1656, 68.29
884.0, 0.1655, 68.31
884.5, 0.1654, 68.33
885.0, 0.1652, 68.36
885.5, 0.1651, 68.38
886.0, 0.1650, 68.40
886.5, 0.1648, 68.43
887.0, 0.1647, 68.44
887.5, 0.1645, 68.47
888.0, 0.1644, 68.49
888.5, 0.1642, 68.52
889.0, 0.1641, 68.53
889.5, 0.1639, 68.57
890.0, 0.1639, 68.57
890.5, 0.1637, 68.60
891.0, 0.1636, 68.62
891.5, 0.1634, 68.64
892.0, 0.1632, 68.67
892.5, 0.1631, 68.69
893.0, 0.1630, 68.71
893.5, 0.1628, 68.73
894.0, 0.1627, 68.75
894.5, 0.1625, 68.78
895.0, 0.1623, 68.82
895.5, 0.1623, 68.82
896.0, 0.1622, 68.84
896.5, 0.1619, 68.88
897.0, 0.1618, 68.89
897.5, 0.1617, 68.92
898.0, 0.1616, 68.93
898.5, 0.1614, 68.97
899.0, 0.1613, 68.98
899.5, 0.1611, 69.01
900.0, 0.1610, 69.02
900.5, 0.1608, 69.05
901.0, 0.1607, 69.06
901.5, 0.1606, 69.09
902.0, 0.1605, 69.11
902.5, 0.1603, 69.13
903.0, 0.1602, 69.15
903.5, 0.1601, 69.17
904.0, 0.1599, 69.20
904.5, 0.1598, 69.21
905.0, 0.1597, 69.24
905.5, 0.1595, 69.26
906.0, 0.1594, 69.28
906.5, 0.1593, 69.30
907.0, 0.1591, 69.32
907.5, 0.1590, 69.35
908.0, 0.1589, 69.36
908.5, 0.1588, 69.38
909.0, 0.1587, 69.39
909.5, 0.1585, 69.42
910.0, 0.1584, 69.44
910.5, 0.1583, 69.46
911.0, 0.1582, 69.47
911.5, 0.1580, 69.50
912.0, 0.1579, 69.52
912.5, 0.1578, 69.53
913.0, 0.1577, 69.55
913.5, 0.1576, 69.57
914.0, 0.1575, 69.59
914.5, 0.1573, 69.61
915.0, 0.1573, 69.62
915.5, 0.1572, 69.63
916.0, 0.1571, 69.65
916.5, 0.1569, 69.67
917.0, 0.1567, 69.70
917.5, 0.1567, 69.72
918.0, 0.1566, 69.73
918.5, 0.1566, 69.73
919.0, 0.1565, 69.75
919.5, 0.1563, 69.77
920.0, 0.1562, 69.79
920.5, 0.1562, 69.79
921.0, 0.1561, 69.81
921.5, 0.1560, 69.82
922.0, 0.1559, 69.84
922.5, 0.1558, 69.85
923.0, 0.1558, 69.85
923.5, 0.1557, 69.87
924.0, 0.1557, 69.88
924.5, 0.1555, 69.90
925.0, 0.1555, 69.90
925.5, 0.1554, 69.92
926.0, 0.1554, 69.92
926.5, 0.1553, 69.93
927.0, 0.1553, 69.94
927.5, 0.1553, 69.94
928.0, 0.1552, 69.95
928.5, 0.1552, 69.95
929.0, 0.1551, 69.96
929.5, 0.1552, 69.96
930.0, 0.1551, 69.97
930.5, 0.1552, 69.95
931.0, 0.1551, 69.97
931.5, 0.1551, 69.96
932.0, 0.1551, 69.96
932.5, 0.1551, 69.97
933.0, 0.1551, 69.97
933.5, 0.1551, 69.97
934.0, 0.1551, 69.97
934.5, 0.1551, 69.97
935.0, 0.1552, 69.96
935.5, 0.1551, 69.97
936.0, 0.1552, 69.96
936.5, 0.1551, 69.97
937.0, 0.1552, 69.94
937.5, 0.1553, 69.94
938.0, 0.1554, 69.93
938.5, 0.1553, 69.94
939.0, 0.1554, 69.93
939.5, 0.1555, 69.91
940.0, 0.1555, 69.90
940.5, 0.1556, 69.89
941.0, 0.1556, 69.89
941.5, 0.1558, 69.86
942.0, 0.1557, 69.87
942.5, 0.1558, 69.85
943.0, 0.1559, 69.85
943.5, 0.1559, 69.84
944.0, 0.1560, 69.83
944.5, 0.1562, 69.80
945.0, 0.1563, 69.78
945.5, 0.1563, 69.77
946.0, 0.1563, 69.77
946.5, 0.1565, 69.74
947.0, 0.1566, 69.73
947.5, 0.1568, 69.69
948.0, 0.1569, 69.68
948.5, 0.1570, 69.67
949.0, 0.1572, 69.63
949.5, 0.1573, 69.61
950.0, 0.1575, 69.58
950.5, 0.1577, 69.56
951.0, 0.1578, 69.53
951.5, 0.1581, 69.48
952.0, 0.1583, 69.46
952.5, 0.1586, 69.41
953.0, 0.1587, 69.39
953.5, 0.1590, 69.34
954.0, 0.1592, 69.31
954.5, 0.1595, 69.26
955.0, 0.1596, 69.24
955.5, 0.1600, 69.19
956.0, 0.1601, 69.17
956.5, 0.1603, 69.13
957.0, 0.1605, 69.10
957.5, 0.1608, 69.06
958.0, 0.1608, 69.06
958.5, 0.1608, 69.05
959.0, 0.1610, 69.02
959.5, 0.1610, 69.02
960.0, 0.1612, 68.99
960.5, 0.1611, 69.01
961.0, 0.1612, 68.99
961.5, 0.1612, 68.99
962.0, 0.1613, 68.98
962.5, 0.1611, 69.01
963.0, 0.1610, 69.02
963.5, 0.1611, 69.00
964.0, 0.1610, 69.02
964.5, 0.1611, 69.00
965.0, 0.1609, 69.04
965.5, 0.1609, 69.04
966.0, 0.1607, 69.07
966.5, 0.1607, 69.07
967.0, 0.1606, 69.08
967.5, 0.1605, 69.10
968.0, 0.1605, 69.11
968.5, 0.1603, 69.13
969.0, 0.1603, 69.14
969.5, 0.1603, 69.14
970.0, 0.1602, 69.16
970.5, 0.1601, 69.17
971.0, 0.1600, 69.19
971.5, 0.1592, 69.32
972.0, 0.1591, 69.33
972.5, 0.1589, 69.36
973.0, 0.1589, 69.36
973.5, 0.1588, 69.37
974.0, 0.1587, 69.39
974.5, 0.1587, 69.38
975.0, 0.1585, 69.42
975.5, 0.1585, 69.42
976.0, 0.1583, 69.45
976.5, 0.1583, 69.45
977.0, 0.1581, 69.48
977.5, 0.1580, 69.50
978.0, 0.1579, 69.52
978.5, 0.1577, 69.56
979.0, 0.1577, 69.55
979.5, 0.1574, 69.59
980.0, 0.1574, 69.60
980.5, 0.1570, 69.66
981.0, 0.1570, 69.66
981.5, 0.1569, 69.68
982.0, 0.1567, 69.71
982.5, 0.1566, 69.73
983.0, 0.1564, 69.76
983.5, 0.1563, 69.77
984.0, 0.1562, 69.79
984.5, 0.1559, 69.84
985.0, 0.1557, 69.87
985.5, 0.1556, 69.89
986.0, 0.1554, 69.93
986.5, 0.1553, 69.93
987.0, 0.1550, 69.98
987.5, 0.1548, 70.01
988.0, 0.1546, 70.05
988.5, 0.1545, 70.07
989.0, 0.1544, 70.09
989.5, 0.1541, 70.13
990.0, 0.1539, 70.17
990.5, 0.1536, 70.21
991.0, 0.1534, 70.24
991.5, 0.1532, 70.27
992.0, 0.1530, 70.30
992.5, 0.1528, 70.34
993.0, 0.1526, 70.38
993.5, 0.1525, 70.39
994.0, 0.1522, 70.43
994.5, 0.1519, 70.48
995.0, 0.1517, 70.51
995.5, 0.1515, 70.54
996.0, 0.1514, 70.57
996.5, 0.1512, 70.61
997.0, 0.1509, 70.64
997.5, 0.1507, 70.68
998.0, 0.1505, 70.71
998.5, 0.1504, 70.73
999.0, 0.1501, 70.78
999.5, 0.1499, 70.81
1000.0, 0.1494, 70.89
1000.5, 0.1493, 70.92
1001.0, 0.1491, 70.95
1001.5, 0.1489, 70.98
1002.0, 0.1487, 71.01
1002.5, 0.1483, 71.08
1003.0, 0.1481, 71.10
1003.5, 0.1479, 71.13
1004.0, 0.1478, 71.16
1004.5, 0.1474, 71.22
1005.0, 0.1472, 71.26
1005.5, 0.1469, 71.30
1006.0, 0.1467, 71.34
1006.5, 0.1465, 71.37
1007.0, 0.1464, 71.39
1007.5, 0.1460, 71.45
1008.0, 0.1459, 71.46
1008.5, 0.1457, 71.50
1009.0, 0.1455, 71.54
1009.5, 0.1453, 71.56
1010.0, 0.1449, 71.63
1010.5, 0.1447, 71.66
1011.0, 0.1445, 71.70
1011.5, 0.1442, 71.74
1012.0, 0.1441, 71.77
1012.5, 0.1437, 71.83
1013.0, 0.1435, 71.86
1013.5, 0.1432, 71.91
1014.0, 0.1432, 71.92
1014.5, 0.1426, 72.01
1015.0, 0.1425, 72.02
1015.5, 0.1417, 72.17
1016.0, 0.1415, 72.20
1016.5, 0.1413, 72.23
1017.0, 0.1410, 72.27
1017.5, 0.1409, 72.29
1018.0, 0.1407, 72.32
1018.5, 0.1404, 72.37
1019.0, 0.1403, 72.39
1019.5, 0.1401, 72.43
1020.0, 0.1398, 72.47
1020.5, 0.1396, 72.51
1021.0, 0.1394, 72.55
1021.5, 0.1395, 72.53
1022.0, 0.1390, 72.61
1022.5, 0.1391, 72.59
1023.0, 0.1387, 72.65
1023.5, 0.1386, 72.68
1024.0, 0.1384, 72.71
1024.5, 0.1380, 72.77
1025.0, 0.1380, 72.78
1025.5, 0.1375, 72.86
1026.0, 0.1375, 72.86
1026.5, 0.1373, 72.90
1027.0, 0.1370, 72.95
1027.5, 0.1368, 72.98
1028.0, 0.1366, 73.01
1028.5, 0.1365, 73.03
1029.0, 0.1361, 73.09
1029.5, 0.1360, 73.12
1030.0, 0.1357, 73.16
1030.5, 0.1357, 73.17
1031.0, 0.1355, 73.21
1031.5, 0.1353, 73.23
1032.0, 0.1351, 73.26
1032.5, 0.1349, 73.30
1033.0, 0.1347, 73.33
1033.5, 0.1346, 73.35
1034.0, 0.1345, 73.37
1034.5, 0.1342, 73.42
1035.0, 0.1339, 73.47
1035.5, 0.1338, 73.49
1036.0, 0.1336, 73.51
1036.5, 0.1334, 73.55
1037.0, 0.1334, 73.56
1037.5, 0.1329, 73.63
1038.0, 0.1329, 73.63
1038.5, 0.1327, 73.67
1039.0, 0.1323, 73.74
1039.5, 0.1321, 73.77
1040.0, 0.1319, 73.81
1040.5, 0.1318, 73.82
1041.0, 0.1316, 73.86
1041.5, 0.1316, 73.86
1042.0, 0.1314, 73.88
1042.5, 0.1312, 73.92
1043.0, 0.1311, 73.95
1043.5, 0.1309, 73.97
1044.0, 0.1307, 74.01
1044.5, 0.1306, 74.04
1045.0, 0.1303, 74.07
1045.5, 0.1303, 74.07
1046.0, 0.1302, 74.10
1046.5, 0.1293, 74.25
1047.0, 0.1293, 74.26
1047.5, 0.1291, 74.29
1048.0, 0.1291, 74.29
1048.5, 0.1289, 74.32
1049.0, 0.1288, 74.34
1049.5, 0.1287, 74.35
1050.0, 0.1286, 74.38
1050.5, 0.1285, 74.39
1051.0, 0.1284, 74.41
1051.5, 0.1284, 74.41
1052.0, 0.1282, 74.44
1052.5, 0.1282, 74.44
1053.0, 0.1279, 74.48
1053.5, 0.1277, 74.52
1054.0, 0.1276, 74.54
1054.5, 0.1276, 74.55
1055.0, 0.1274, 74.57
1055.5, 0.1274, 74.58
1056.0, 0.1274, 74.58
1056.5, 0.1273, 74.59
1057.0, 0.1271, 74.62
1057.5, 0.1270, 74.65
1058.0, 0.1268, 74.68
1058.5, 0.1266, 74.71
1059.0, 0.1265, 74.73
1059.5, 0.1263, 74.76
1060.0, 0.1264, 74.75
1060.5, 0.1261, 74.79
1061.0, 0.1261, 74.79
1061.5, 0.1259, 74.83
1062.0, 0.1259, 74.84
1062.5, 0.1258, 74.86
1063.0, 0.1256, 74.89
1063.5, 0.1255, 74.90
1064.0, 0.1253, 74.93
1064.5, 0.1254, 74.92
1065.0, 0.1254, 74.92
1065.5, 0.1253, 74.93
1066.0, 0.1253, 74.94
1066.5, 0.1252, 74.96
1067.0, 0.1253, 74.94
1067.5, 0.1250, 74.99
1068.0, 0.1250, 74.99
1068.5, 0.1248, 75.03
1069.0, 0.1248, 75.03
1069.5, 0.1246, 75.06
1070.0, 0.1248, 75.03
1070.5, 0.1247, 75.05
1071.0, 0.1247, 75.05
1071.5, 0.1246, 75.06
1072.0, 0.1246, 75.05
1072.5, 0.1236, 75.24
1073.0, 0.1236, 75.23
1073.5, 0.1235, 75.25
1074.0, 0.1235, 75.26
1074.5, 0.1236, 75.23
1075.0, 0.1234, 75.27
1075.5, 0.1236, 75.24
1076.0, 0.1234, 75.26
1076.5, 0.1235, 75.25
1077.0, 0.1235, 75.26
1077.5, 0.1232, 75.29
1078.0, 0.1232, 75.29
1078.5, 0.1232, 75.30
1079.0, 0.1232, 75.29
1079.5, 0.1231, 75.31
1080.0, 0.1233, 75.28
1080.5, 0.1232, 75.30
1081.0, 0.1233, 75.28
1081.5, 0.1235, 75.26
1082.0, 0.1235, 75.26
1082.5, 0.1236, 75.24
1083.0, 0.1236, 75.23
1083.5, 0.1240, 75.17
1084.0, 0.1243, 75.11
1084.5, 0.1251, 74.96
1085.0, 0.1256, 74.89
1085.5, 0.1262, 74.79
1086.0, 0.1260, 74.82
1086.5, 0.1260, 74.82
1087.0, 0.1259, 74.84
1087.5, 0.1256, 74.89
1088.0, 0.1252, 74.95
1088.5, 0.1251, 74.97
1089.0, 0.1253, 74.94
1089.5, 0.1253, 74.94
1090.0, 0.1255, 74.91
1090.5, 0.1252, 74.95
1091.0, 0.1251, 74.97
1091.5, 0.1252, 74.95
1092.0, 0.1250, 74.99
1092.5, 0.1250, 74.98
1093.0, 0.1250, 74.99
1093.5, 0.1252, 74.96
1094.0, 0.1254, 74.92
1094.5, 0.1258, 74.86
1095.0, 0.1261, 74.80
1095.5, 0.1266, 74.71
1096.0, 0.1276, 74.55
1096.5, 0.1290, 74.30
1097.0, 0.1309, 73.97
1097.5, 0.1350, 73.29
1098.0, 0.1377, 72.82
1098.5, 0.1415, 72.20
1099.0, 0.1436, 71.85
1099.5, 0.1445, 71.69
1100.0, 0.1445, 71.70
