Sample Name, Sample-1
Time, March 10 15:21:05 2023
Operator, Smith
Lamp, 0
Slit,0.0
Scan From, 1100.0nm
Scan To, 190.0nm
Scan Step, 0.5nm
Sample Filter, 5
memo, 
WL(nm), Abs, T%
190.0, 2.1844, 0.65
190.5, 2.2303, 0.59
191.0, 2.2198, 0.60
191.5, 2.2655, 0.54
192.0, 2.3208, 0.48
192.5, 2.3705, 0.43
193.0, 2.4973, 0.32
193.5, 2.5680, 0.27
194.0, 2.5518, 0.28
194.5, 2.5638, 0.27
195.0, 2.5906, 0.26
195.5, 2.5544, 0.28
196.0, 2.5698, 0.27
196.5, 2.5488, 0.28
197.0, 2.6110, 0.24
197.5, 2.6112, 0.24
198.0, 2.7028, 0.20
198.5, 2.7510, 0.18
199.0, 2.7182, 0.19
199.5, 2.7816, 0.17
200.0, 2.7169, 0.19
200.5, 2.6847, 0.21
201.0, 2.7078, 0.20
201.5, 2.6963, 0.20
202.0, 2.6888, 0.20
202.5, 2.7328, 0.19
203.0, 2.7886, 0.16
203.5, 2.8322, 0.15
204.0, 2.8665, 0.14
204.5, 2.8106, 0.15
205.0, 2.8077, 0.16
205.5, 2.7625, 0.17
206.0, 2.7497, 0.18
206.5, 2.7572, 0.17
207.0, 2.7642, 0.17
207.5, 2.8317, 0.15
208.0, 2.8249, 0.15
208.5, 2.8105, 0.15
209.0, 2.8125, 0.15
209.5, 2.7811, 0.17
210.0, 2.7493, 0.18
210.5, 2.6787, 0.21
211.0, 2.6685, 0.21
211.5, 2.6640, 0.22
212.0, 2.6404, 0.23
212.5, 2.6253, 0.24
213.0, 2.6152, 0.24
213.5, 2.5818, 0.26
214.0, 2.5446, 0.29
214.5, 2.4894, 0.32
215.0, 2.4566, 0.35
215.5, 2.4192, 0.38
216.0, 2.3822, 0.41
216.5, 2.3466, 0.45
217.0, 2.3296, 0.47
217.5, 2.3011, 0.50
218.0, 2.2698, 0.54
218.5, 2.2426, 0.57
219.0, 2.2018, 0.63
219.5, 2.1676, 0.68
220.0, 2.1260, 0.75
220.5, 2.0982, 0.80
221.0, 2.0673, 0.86
221.5, 2.0318, 0.93
222.0, 2.0094, 0.98
222.5, 1.9796, 1.05
223.0, 1.9515, 1.12
223.5, 1.9159, 1.21
224.0, 1.8860, 1.30
224.5, 1.8560, 1.39
225.0, 1.8243, 1.50
225.5, 1.7956, 1.60
226.0, 1.7620, 1.73
226.5, 1.7346, 1.84
227.0, 1.7066, 1.97
227.5, 1.6753, 2.11
228.0, 1.6448, 2.27
228.5, 1.6149, 2.43
229.0, 1.5825, 2.61
229.5, 1.5479, 2.83
230.0, 1.5149, 3.06
230.5, 1.4804, 3.31
231.0, 1.4506, 3.54
231.5, 1.4159, 3.84
232.0, 1.3837, 4.13
232.5, 1.3510, 4.46
233.0, 1.3186, 4.80
233.5, 1.2865, 5.17
234.0, 1.2542, 5.57
234.5, 1.2229, 5.99
235.0, 1.1913, 6.44
235.5, 1.1633, 6.87
236.0, 1.1368, 7.30
236.5, 1.1100, 7.76
237.0, 1.0839, 8.24
237.5, 1.0592, 8.73
238.0, 1.0359, 9.21
238.5, 1.0131, 9.70
239.0, 0.9915, 10.20
239.5, 0.9715, 10.68
240.0, 0.9531, 11.14
240.5, 0.9359, 11.59
241.0, 0.9199, 12.03
241.5, 0.9054, 12.43
242.0, 0.8912, 12.85
242.5, 0.8776, 13.25
243.0, 0.8651, 13.64
243.5, 0.8524, 14.05
244.0, 0.8409, 14.42
244.5, 0.8297, 14.80
245.0, 0.8199, 15.14
245.5, 0.8104, 15.48
246.0, 0.8016, 15.79
246.5, 0.7932, 16.10
247.0, 0.7853, 16.40
247.5, 0.7780, 16.67
248.0, 0.7713, 16.93
248.5, 0.7639, 17.22
249.0, 0.7573, 17.49
249.5, 0.7507, 17.75
250.0, 0.7452, 17.98
250.5, 0.7392, 18.23
251.0, 0.7339, 18.45
251.5, 0.7290, 18.66
252.0, 0.7243, 18.87
252.5, 0.7199, 19.06
253.0, 0.7155, 19.25
253.5, 0.7108, 19.46
254.0, 0.7071, 19.63
254.5, 0.7018, 19.87
255.0, 0.6984, 20.03
255.5, 0.6948, 20.19
256.0, 0.6916, 20.34
256.5, 0.6888, 20.47
257.0, 0.6860, 20.61
257.5, 0.6831, 20.75
258.0, 0.6802, 20.88
258.5, 0.6776, 21.01
259.0, 0.6748, 21.14
259.5, 0.6725, 21.26
260.0, 0.6703, 21.36
260.5, 0.6680, 21.48
261.0, 0.6660, 21.58
261.5, 0.6642, 21.67
262.0, 0.6624, 21.76
262.5, 0.6603, 21.86
263.0, 0.6582, 21.97
263.5, 0.6565, 22.05
264.0, 0.6551, 22.13
264.5, 0.6535, 22.21
265.0, 0.6523, 22.27
265.5, 0.6511, 22.33
266.0, 0.6499, 22.39
266.5, 0.6489, 22.45
267.0, 0.6476, 22.51
267.5, 0.6464, 22.58
268.0, 0.6449, 22.65
268.5, 0.6437, 22.72
269.0, 0.6427, 22.77
269.5, 0.6415, 22.83
270.0, 0.6406, 22.88
270.5, 0.6399, 22.92
271.0, 0.6388, 22.97
271.5, 0.6378, 23.02
272.0, 0.6368, 23.08
272.5, 0.6357, 23.14
273.0, 0.6346, 23.19
273.5, 0.6335, 23.26
274.0, 0.6323, 23.32
274.5, 0.6313, 23.37
275.0, 0.6304, 23.42
275.5, 0.6296, 23.47
276.0, 0.6283, 23.53
276.5, 0.6271, 23.60
277.0, 0.6260, 23.66
277.5, 0.6244, 23.74
278.0, 0.6229, 23.83
278.5, 0.6211, 23.93
279.0, 0.6193, 24.03
279.5, 0.6177, 24.12
280.0, 0.6160, 24.21
280.5, 0.6144, 24.30
281.0, 0.6124, 24.41
281.5, 0.6104, 24.52
282.0, 0.6086, 24.62
282.5, 0.6058, 24.78
283.0, 0.6033, 24.93
283.5, 0.6008, 25.07
284.0, 0.5982, 25.22
284.5, 0.5954, 25.38
285.0, 0.5926, 25.55
285.5, 0.5894, 25.74
286.0, 0.5859, 25.95
286.5, 0.5823, 26.17
287.0, 0.5787, 26.38
287.5, 0.5746, 26.63
288.0, 0.5706, 26.88
288.5, 0.5669, 27.11
289.0, 0.5633, 27.34
289.5, 0.5598, 27.56
290.0, 0.5564, 27.77
290.5, 0.5528, 28.00
291.0, 0.5494, 28.22
291.5, 0.5453, 28.49
292.0, 0.5417, 28.73
292.5, 0.5378, 28.99
293.0, 0.5338, 29.25
293.5, 0.5300, 29.51
294.0, 0.5267, 29.74
294.5, 0.5231, 29.98
295.0, 0.5198, 30.21
295.5, 0.5165, 30.44
296.0, 0.5131, 30.68
296.5, 0.5101, 30.89
297.0, 0.5067, 31.14
297.5, 0.5036, 31.36
298.0, 0.5007, 31.57
298.5, 0.4979, 31.78
299.0, 0.4954, 31.96
299.5, 0.4930, 32.13
300.0, 0.4907, 32.31
300.5, 0.4886, 32.47
301.0, 0.4863, 32.64
301.5, 0.4838, 32.82
302.0, 0.4816, 32.99
302.5, 0.4793, 33.17
303.0, 0.4772, 33.32
303.5, 0.4751, 33.49
304.0, 0.4733, 33.63
304.5, 0.4714, 33.77
305.0, 0.4698, 33.90
305.5, 0.4681, 34.03
306.0, 0.4664, 34.17
306.5, 0.4643, 34.33
307.0, 0.4625, 34.48
307.5, 0.4609, 34.60
308.0, 0.4595, 34.71
308.5, 0.4580, 34.83
309.0, 0.4567, 34.94
309.5, 0.4553, 35.05
310.0, 0.4539, 35.16
310.5, 0.4526, 35.27
311.0, 0.4514, 35.37
311.5, 0.4499, 35.49
312.0, 0.4485, 35.60
312.5, 0.4474, 35.70
313.0, 0.4463, 35.79
313.5, 0.4451, 35.88
314.0, 0.4444, 35.94
314.5, 0.4433, 36.03
315.0, 0.4425, 36.10
315.5, 0.4414, 36.19
316.0, 0.4402, 36.29
316.5, 0.4391, 36.39
317.0, 0.4380, 36.47
317.5, 0.4371, 36.55
318.0, 0.4362, 36.63
318.5, 0.4354, 36.69
319.0, 0.4345, 36.77
319.5, 0.4335, 36.85
320.0, 0.4328, 36.92
320.5, 0.4320, 36.98
321.0, 0.4310, 37.06
321.5, 0.4299, 37.16
322.0, 0.4290, 37.24
322.5, 0.4281, 37.32
323.0, 0.4274, 37.38
323.5, 0.4267, 37.43
324.0, 0.4261, 37.49
324.5, 0.4253, 37.56
325.0, 0.4246, 37.62
325.5, 0.4239, 37.67
326.0, 0.4228, 37.78
326.5, 0.4218, 37.86
327.0, 0.4210, 37.93
327.5, 0.4203, 37.99
328.0, 0.4196, 38.06
328.5, 0.4191, 38.10
329.0, 0.4185, 38.15
329.5, 0.4177, 38.22
330.0, 0.4170, 38.28
330.5, 0.4163, 38.35
331.0, 0.4153, 38.43
331.5, 0.4145, 38.51
332.0, 0.4136, 38.59
332.5, 0.4129, 38.64
333.0, 0.4125, 38.68
333.5, 0.4119, 38.74
334.0, 0.4113, 38.79
334.5, 0.4107, 38.84
335.0, 0.4101, 38.89
335.5, 0.4091, 38.99
336.0, 0.4084, 39.05
336.5, 0.4076, 39.12
337.0, 0.4071, 39.17
337.5, 0.4065, 39.22
338.0, 0.4060, 39.27
338.5, 0.4057, 39.29
339.0, 0.4049, 39.36
339.5, 0.4052, 39.34
340.0, 0.4042, 39.43
340.5, 0.4039, 39.45
341.0, 0.4031, 39.53
341.5, 0.4025, 39.58
342.0, 0.4016, 39.67
342.5, 0.4008, 39.74
343.0, 0.4004, 39.77
343.5, 0.4001, 39.81
344.0, 0.3998, 39.83
344.5, 0.3993, 39.87
345.0, 0.3987, 39.93
345.5, 0.3983, 39.97
346.0, 0.3974, 40.05
346.5, 0.3963, 40.15
347.0, 0.3958, 40.20
347.5, 0.3953, 40.24
348.0, 0.3949, 40.28
348.5, 0.3947, 40.30
349.0, 0.3943, 40.33
349.5, 0.3937, 40.39
350.0, 0.3933, 40.43
350.5, 0.3925, 40.51
351.0, 0.3919, 40.56
351.5, 0.3912, 40.62
352.0, 0.3908, 40.67
352.5, 0.3901, 40.73
353.0, 0.3899, 40.75
353.5, 0.3896, 40.77
354.0, 0.3894, 40.79
354.5, 0.3888, 40.85
355.0, 0.3883, 40.90
355.5, 0.3877, 40.95
356.0, 0.3871, 41.01
356.5, 0.3863, 41.09
357.0, 0.3859, 41.12
357.5, 0.3855, 41.16
358.0, 0.3851, 41.20
358.5, 0.3849, 41.22
359.0, 0.3846, 41.25
359.5, 0.3840, 41.31
360.0, 0.3834, 41.36
360.5, 0.3829, 41.41
361.0, 0.3824, 41.45
361.5, 0.3819, 41.50
362.0, 0.3815, 41.55
362.5, 0.3812, 41.57
363.0, 0.3809, 41.60
363.5, 0.3807, 41.62
364.0, 0.3804, 41.65
364.5, 0.3798, 41.71
365.0, 0.3793, 41.76
365.5, 0.3787, 41.81
366.0, 0.3781, 41.87
366.5, 0.3775, 41.92
367.0, 0.3774, 41.94
367.5, 0.3772, 41.96
368.0, 0.3768, 41.99
368.5, 0.3765, 42.02
369.0, 0.3763, 42.05
369.5, 0.3759, 42.09
370.0, 0.3752, 42.15
370.5, 0.3753, 42.14
371.0, 0.3748, 42.19
371.5, 0.3746, 42.21
372.0, 0.3741, 42.26
372.5, 0.3738, 42.29
373.0, 0.3738, 42.29
373.5, 0.3738, 42.29
374.0, 0.3731, 42.35
374.5, 0.3726, 42.40
375.0, 0.3720, 42.46
375.5, 0.3716, 42.50
376.0, 0.3713, 42.53
376.5, 0.3710, 42.56
377.0, 0.3707, 42.59
377.5, 0.3705, 42.60
378.0, 0.3705, 42.61
378.5, 0.3701, 42.65
379.0, 0.3696, 42.69
379.5, 0.3692, 42.74
380.0, 0.3688, 42.78
380.5, 0.3686, 42.80
381.0, 0.3684, 42.82
381.5, 0.3678, 42.87
382.0, 0.3675, 42.90
382.5, 0.3676, 42.90
383.0, 0.3674, 42.91
383.5, 0.3669, 42.97
384.0, 0.3665, 43.01
384.5, 0.3661, 43.04
385.0, 0.3659, 43.07
385.5, 0.3656, 43.09
386.0, 0.3653, 43.12
386.5, 0.3650, 43.16
387.0, 0.3646, 43.19
387.5, 0.3645, 43.20
388.0, 0.3643, 43.22
388.5, 0.3640, 43.25
389.0, 0.3635, 43.30
389.5, 0.3632, 43.33
390.0, 0.3630, 43.36
390.5, 0.3630, 43.35
391.0, 0.3626, 43.39
391.5, 0.3625, 43.40
392.0, 0.3621, 43.44
392.5, 0.3622, 43.43
393.0, 0.3619, 43.46
393.5, 0.3616, 43.49
394.0, 0.3612, 43.54
394.5, 0.3611, 43.54
395.0, 0.3608, 43.57
395.5, 0.3604, 43.61
396.0, 0.3601, 43.64
396.5, 0.3598, 43.67
397.0, 0.3596, 43.69
397.5, 0.3596, 43.69
398.0, 0.3592, 43.73
398.5, 0.3589, 43.76
399.0, 0.3587, 43.78
399.5, 0.3583, 43.82
400.0, 0.3583, 43.82
400.5, 0.3579, 43.87
401.0, 0.3577, 43.89
401.5, 0.3574, 43.91
402.0, 0.3573, 43.92
402.5, 0.3572, 43.93
403.0, 0.3569, 43.97
403.5, 0.3567, 43.99
404.0, 0.3563, 44.02
404.5, 0.3562, 44.03
405.0, 0.3559, 44.06
405.5, 0.3558, 44.08
406.0, 0.3555, 44.11
406.5, 0.3553, 44.13
407.0, 0.3552, 44.13
407.5, 0.3550, 44.16
408.0, 0.3548, 44.18
408.5, 0.3545, 44.21
409.0, 0.3543, 44.23
409.5, 0.3540, 44.25
410.0, 0.3538, 44.27
410.5, 0.3536, 44.30
411.0, 0.3535, 44.31
411.5, 0.3531, 44.35
412.0, 0.3531, 44.35
412.5, 0.3530, 44.36
413.0, 0.3528, 44.38
413.5, 0.3525, 44.41
414.0, 0.3523, 44.44
414.5, 0.3520, 44.46
415.0, 0.3519, 44.47
415.5, 0.3517, 44.49
416.0, 0.3515, 44.51
416.5, 0.3513, 44.53
417.0, 0.3512, 44.54
417.5, 0.3511, 44.55
418.0, 0.3509, 44.58
418.5, 0.3507, 44.59
419.0, 0.3504, 44.63
419.5, 0.3501, 44.66
420.0, 0.3501, 44.66
420.5, 0.3499, 44.67
421.0, 0.3497, 44.70
421.5, 0.3495, 44.72
422.0, 0.3494, 44.73
422.5, 0.3493, 44.74
423.0, 0.3491, 44.76
423.5, 0.3488, 44.79
424.0, 0.3486, 44.81
424.5, 0.3484, 44.83
425.0, 0.3483, 44.84
425.5, 0.3482, 44.85
426.0, 0.3481, 44.87
426.5, 0.3479, 44.89
427.0, 0.3477, 44.91
427.5, 0.3475, 44.93
428.0, 0.3474, 44.94
428.5, 0.3473, 44.95
429.0, 0.3471, 44.96
429.5, 0.3469, 44.99
430.0, 0.3468, 45.00
430.5, 0.3466, 45.02
431.0, 0.3465, 45.03
431.5, 0.3464, 45.04
432.0, 0.3463, 45.05
432.5, 0.3461, 45.08
433.0, 0.3460, 45.09
433.5, 0.3458, 45.10
434.0, 0.3456, 45.13
434.5, 0.3454, 45.15
435.0, 0.3454, 45.15
435.5, 0.3452, 45.16
436.0, 0.3452, 45.17
436.5, 0.3450, 45.19
437.0, 0.3448, 45.21
437.5, 0.3446, 45.22
438.0, 0.3446, 45.23
438.5, 0.3444, 45.24
439.0, 0.3443, 45.26
439.5, 0.3441, 45.28
440.0, 0.3440, 45.29
440.5, 0.3438, 45.31
441.0, 0.3438, 45.31
441.5, 0.3437, 45.32
442.0, 0.3434, 45.36
442.5, 0.3432, 45.37
443.0, 0.3432, 45.38
443.5, 0.3430, 45.39
444.0, 0.3429, 45.41
444.5, 0.3427, 45.43
445.0, 0.3427, 45.42
445.5, 0.3426, 45.44
446.0, 0.3425, 45.45
446.5, 0.3422, 45.48
447.0, 0.3421, 45.49
447.5, 0.3419, 45.51
448.0, 0.3418, 45.51
448.5, 0.3417, 45.53
449.0, 0.3415, 45.55
449.5, 0.3413, 45.57
450.0, 0.3415, 45.56
450.5, 0.3414, 45.57
451.0, 0.3412, 45.58
451.5, 0.3411, 45.59
452.0, 0.3409, 45.62
452.5, 0.3409, 45.62
453.0, 0.3407, 45.63
453.5, 0.3407, 45.63
454.0, 0.3406, 45.65
454.5, 0.3403, 45.68
455.0, 0.3401, 45.70
455.5, 0.3399, 45.72
456.0, 0.3399, 45.72
456.5, 0.3399, 45.72
457.0, 0.3397, 45.74
457.5, 0.3396, 45.75
458.0, 0.3396, 45.75
458.5, 0.3394, 45.77
459.0, 0.3394, 45.77
459.5, 0.3393, 45.78
460.0, 0.3391, 45.80
460.5, 0.3389, 45.82
461.0, 0.3389, 45.82
461.5, 0.3388, 45.83
462.0, 0.3387, 45.85
462.5, 0.3386, 45.86
463.0, 0.3385, 45.86
463.5, 0.3386, 45.86
464.0, 0.3385, 45.87
464.5, 0.3382, 45.89
465.0, 0.3381, 45.91
465.5, 0.3380, 45.92
466.0, 0.3380, 45.92
466.5, 0.3379, 45.93
467.0, 0.3377, 45.95
467.5, 0.3376, 45.96
468.0, 0.3375, 45.98
468.5, 0.3376, 45.96
469.0, 0.3374, 45.98
469.5, 0.3373, 46.00
470.0, 0.3371, 46.01
470.5, 0.3370, 46.02
471.0, 0.3370, 46.02
471.5, 0.3370, 46.02
472.0, 0.3369, 46.04
472.5, 0.3368, 46.05
473.0, 0.3367, 46.06
473.5, 0.3366, 46.06
474.0, 0.3365, 46.08
474.5, 0.3363, 46.10
475.0, 0.3362, 46.11
475.5, 0.3361, 46.12
476.0, 0.3362, 46.11
476.5, 0.3360, 46.13
477.0, 0.3358, 46.15
477.5, 0.3358, 46.15
478.0, 0.3358, 46.15
478.5, 0.3358, 46.16
479.0, 0.3357, 46.17
479.5, 0.3355, 46.19
480.0, 0.3355, 46.19
480.5, 0.3354, 46.19
481.0, 0.3354, 46.20
481.5, 0.3353, 46.21
482.0, 0.3352, 46.22
482.5, 0.3351, 46.23
483.0, 0.3351, 46.23
483.5, 0.3349, 46.25
484.0, 0.3348, 46.26
484.5, 0.3347, 46.27
485.0, 0.3347, 46.27
485.5, 0.3346, 46.28
486.0, 0.3345, 46.29
486.5, 0.3345, 46.29
487.0, 0.3344, 46.30
487.5, 0.3343, 46.31
488.0, 0.3343, 46.31
488.5, 0.3342, 46.33
489.0, 0.3341, 46.34
489.5, 0.3340, 46.35
490.0, 0.3339, 46.35
490.5, 0.3338, 46.36
491.0, 0.3338, 46.37
491.5, 0.3336, 46.39
492.0, 0.3336, 46.39
492.5, 0.3335, 46.40
493.0, 0.3335, 46.40
493.5, 0.3333, 46.41
494.0, 0.3333, 46.42
494.5, 0.3333, 46.42
495.0, 0.3331, 46.44
495.5, 0.3332, 46.43
496.0, 0.3331, 46.44
496.5, 0.3329, 46.46
497.0, 0.3329, 46.46
497.5, 0.3328, 46.47
498.0, 0.3328, 46.48
498.5, 0.3327, 46.48
499.0, 0.3326, 46.50
499.5, 0.3326, 46.50
500.0, 0.3325, 46.51
500.5, 0.3325, 46.51
501.0, 0.3323, 46.53
501.5, 0.3323, 46.52
502.0, 0.3322, 46.53
502.5, 0.3321, 46.54
503.0, 0.3321, 46.55
503.5, 0.3320, 46.56
504.0, 0.3318, 46.58
504.5, 0.3319, 46.57
505.0, 0.3318, 46.58
505.5, 0.3318, 46.59
506.0, 0.3316, 46.60
506.5, 0.3319, 46.57
507.0, 0.3318, 46.58
507.5, 0.3318, 46.58
508.0, 0.3317, 46.59
508.5, 0.3316, 46.60
509.0, 0.3316, 46.60
509.5, 0.3314, 46.63
510.0, 0.3313, 46.64
510.5, 0.3314, 46.63
511.0, 0.3312, 46.64
511.5, 0.3312, 46.65
512.0, 0.3311, 46.65
512.5, 0.3311, 46.65
513.0, 0.3311, 46.65
513.5, 0.3309, 46.68
514.0, 0.3309, 46.68
514.5, 0.3309, 46.67
515.0, 0.3309, 46.68
515.5, 0.3308, 46.69
516.0, 0.3308, 46.68
516.5, 0.3306, 46.71
517.0, 0.3306, 46.71
517.5, 0.3305, 46.72
518.0, 0.3304, 46.73
518.5, 0.3304, 46.73
519.0, 0.3303, 46.74
519.5, 0.3303, 46.74
520.0, 0.3303, 46.74
520.5, 0.3302, 46.75
521.0, 0.3302, 46.76
521.5, 0.3300, 46.77
522.0, 0.3300, 46.77
522.5, 0.3301, 46.77
523.0, 0.3299, 46.79
523.5, 0.3299, 46.78
524.0, 0.3299, 46.78
524.5, 0.3298, 46.80
525.0, 0.3298, 46.80
525.5, 0.3297, 46.81
526.0, 0.3297, 46.81
526.5, 0.3296, 46.81
527.0, 0.3295, 46.82
527.5, 0.3296, 46.82
528.0, 0.3295, 46.83
528.5, 0.3295, 46.83
529.0, 0.3295, 46.83
529.5, 0.3295, 46.83
530.0, 0.3293, 46.84
530.5, 0.3293, 46.84
531.0, 0.3292, 46.86
531.5, 0.3292, 46.87
532.0, 0.3292, 46.86
532.5, 0.3292, 46.86
533.0, 0.3290, 46.88
533.5, 0.3289, 46.89
534.0, 0.3289, 46.89
534.5, 0.3290, 46.88
535.0, 0.3289, 46.89
535.5, 0.3288, 46.90
536.0, 0.3288, 46.90
536.5, 0.3287, 46.92
537.0, 0.3288, 46.91
537.5, 0.3287, 46.92
538.0, 0.3286, 46.92
538.5, 0.3286, 46.92
539.0, 0.3285, 46.93
539.5, 0.3284, 46.94
540.0, 0.3285, 46.93
540.5, 0.3283, 46.95
541.0, 0.3283, 46.95
541.5, 0.3283, 46.96
542.0, 0.3284, 46.95
542.5, 0.3281, 46.97
543.0, 0.3282, 46.97
543.5, 0.3281, 46.97
544.0, 0.3281, 46.98
544.5, 0.3281, 46.98
545.0, 0.3281, 46.98
545.5, 0.3280, 46.99
546.0, 0.3280, 46.99
546.5, 0.3278, 47.01
547.0, 0.3279, 47.00
547.5, 0.3279, 47.00
548.0, 0.3279, 47.00
548.5, 0.3278, 47.01
549.0, 0.3277, 47.02
549.5, 0.3277, 47.02
550.0, 0.3276, 47.03
550.5, 0.3275, 47.04
551.0, 0.3275, 47.05
551.5, 0.3274, 47.06
552.0, 0.3273, 47.06
552.5, 0.3273, 47.07
553.0, 0.3274, 47.06
553.5, 0.3272, 47.08
554.0, 0.3272, 47.08
554.5, 0.3271, 47.08
555.0, 0.3271, 47.09
555.5, 0.3271, 47.09
556.0, 0.3270, 47.10
556.5, 0.3270, 47.10
557.0, 0.3269, 47.11
557.5, 0.3269, 47.11
558.0, 0.3268, 47.12
558.5, 0.3268, 47.11
559.0, 0.3269, 47.11
559.5, 0.3268, 47.12
560.0, 0.3268, 47.12
560.5, 0.3267, 47.14
561.0, 0.3266, 47.14
561.5, 0.3265, 47.15
562.0, 0.3264, 47.16
562.5, 0.3265, 47.16
563.0, 0.3264, 47.16
563.5, 0.3265, 47.15
564.0, 0.3264, 47.16
564.5, 0.3264, 47.17
565.0, 0.3262, 47.18
565.5, 0.3263, 47.17
566.0, 0.3262, 47.18
566.5, 0.3262, 47.19
567.0, 0.3261, 47.19
567.5, 0.3261, 47.19
568.0, 0.3262, 47.19
568.5, 0.3261, 47.19
569.0, 0.3259, 47.21
569.5, 0.3260, 47.20
570.0, 0.3260, 47.21
570.5, 0.3259, 47.21
571.0, 0.3259, 47.22
571.5, 0.3259, 47.22
572.0, 0.3258, 47.23
572.5, 0.3259, 47.22
573.0, 0.3258, 47.22
573.5, 0.3258, 47.23
574.0, 0.3258, 47.23
574.5, 0.3257, 47.24
575.0, 0.3258, 47.23
575.5, 0.3258, 47.23
576.0, 0.3256, 47.25
576.5, 0.3256, 47.25
577.0, 0.3256, 47.25
577.5, 0.3256, 47.25
578.0, 0.3256, 47.25
578.5, 0.3249, 47.33
579.0, 0.3249, 47.33
579.5, 0.3249, 47.32
580.0, 0.3251, 47.30
580.5, 0.3249, 47.32
581.0, 0.3250, 47.31
581.5, 0.3249, 47.32
582.0, 0.3250, 47.32
582.5, 0.3251, 47.31
583.0, 0.3251, 47.30
583.5, 0.3251, 47.31
584.0, 0.3251, 47.30
584.5, 0.3251, 47.30
585.0, 0.3250, 47.31
585.5, 0.3252, 47.29
586.0, 0.3253, 47.28
586.5, 0.3252, 47.29
587.0, 0.3251, 47.30
587.5, 0.3252, 47.29
588.0, 0.3250, 47.31
588.5, 0.3252, 47.29
589.0, 0.3252, 47.30
589.5, 0.3251, 47.30
590.0, 0.3250, 47.31
590.5, 0.3250, 47.32
591.0, 0.3251, 47.30
591.5, 0.3250, 47.32
592.0, 0.3249, 47.32
592.5, 0.3247, 47.34
593.0, 0.3248, 47.34
593.5, 0.3248, 47.34
594.0, 0.3248, 47.34
594.5, 0.3247, 47.35
595.0, 0.3246, 47.36
595.5, 0.3246, 47.36
596.0, 0.3248, 47.34
596.5, 0.3246, 47.36
597.0, 0.3246, 47.36
597.5, 0.3245, 47.37
598.0, 0.3246, 47.36
598.5, 0.3246, 47.36
599.0, 0.3245, 47.37
599.5, 0.3244, 47.38
600.0, 0.3244, 47.38
600.5, 0.3245, 47.37
601.0, 0.3244, 47.38
601.5, 0.3244, 47.38
602.0, 0.3243, 47.39
602.5, 0.3242, 47.40
603.0, 0.3241, 47.41
603.5, 0.3241, 47.41
604.0, 0.3241, 47.42
604.5, 0.3240, 47.43
605.0, 0.3240, 47.43
605.5, 0.3241, 47.42
606.0, 0.3240, 47.42
606.5, 0.3240, 47.43
607.0, 0.3240, 47.43
607.5, 0.3239, 47.44
608.0, 0.3240, 47.43
608.5, 0.3238, 47.44
609.0, 0.3238, 47.44
609.5, 0.3238, 47.44
610.0, 0.3238, 47.45
610.5, 0.3238, 47.44
611.0, 0.3237, 47.46
611.5, 0.3237, 47.45
612.0, 0.3237, 47.46
612.5, 0.3236, 47.47
613.0, 0.3236, 47.47
613.5, 0.3236, 47.46
614.0, 0.3236, 47.47
614.5, 0.3236, 47.47
615.0, 0.3236, 47.46
615.5, 0.3236, 47.47
616.0, 0.3235, 47.48
616.5, 0.3235, 47.48
617.0, 0.3234, 47.49
617.5, 0.3234, 47.49
618.0, 0.3233, 47.50
618.5, 0.3233, 47.50
619.0, 0.3233, 47.50
619.5, 0.3233, 47.50
620.0, 0.3233, 47.50
620.5, 0.3232, 47.51
621.0, 0.3232, 47.51
621.5, 0.3231, 47.52
622.0, 0.3231, 47.52
622.5, 0.3231, 47.52
623.0, 0.3230, 47.53
623.5, 0.3231, 47.52
624.0, 0.3231, 47.52
624.5, 0.3231, 47.52
625.0, 0.3230, 47.53
625.5, 0.3231, 47.53
626.0, 0.3229, 47.55
626.5, 0.3229, 47.54
627.0, 0.3229, 47.54
627.5, 0.3228, 47.55
628.0, 0.3229, 47.55
628.5, 0.3229, 47.55
629.0, 0.3228, 47.56
629.5, 0.3228, 47.56
630.0, 0.3228, 47.55
630.5, 0.3227, 47.56
631.0, 0.3226, 47.57
631.5, 0.3226, 47.57
632.0, 0.3225, 47.59
632.5, 0.3225, 47.58
633.0, 0.3226, 47.58
633.5, 0.3225, 47.59
634.0, 0.3225, 47.59
634.5, 0.3224, 47.59
635.0, 0.3224, 47.60
635.5, 0.3224, 47.60
636.0, 0.3224, 47.60
636.5, 0.3224, 47.60
637.0, 0.3223, 47.61
637.5, 0.3223, 47.61
638.0, 0.3222, 47.62
638.5, 0.3222, 47.62
639.0, 0.3222, 47.62
639.5, 0.3223, 47.61
640.0, 0.3221, 47.63
640.5, 0.3221, 47.63
641.0, 0.3220, 47.64
641.5, 0.3220, 47.64
642.0, 0.3219, 47.65
642.5, 0.3219, 47.65
643.0, 0.3219, 47.66
643.5, 0.3218, 47.66
644.0, 0.3218, 47.67
644.5, 0.3217, 47.68
645.0, 0.3218, 47.67
645.5, 0.3217, 47.68
646.0, 0.3216, 47.69
646.5, 0.3215, 47.69
647.0, 0.3215, 47.70
647.5, 0.3216, 47.69
648.0, 0.3216, 47.69
648.5, 0.3215, 47.69
649.0, 0.3215, 47.70
649.5, 0.3215, 47.70
650.0, 0.3215, 47.69
650.5, 0.3214, 47.70
651.0, 0.3214, 47.71
651.5, 0.3214, 47.71
652.0, 0.3214, 47.71
652.5, 0.3215, 47.70
653.0, 0.3214, 47.71
653.5, 0.3215, 47.69
654.0, 0.3214, 47.71
654.5, 0.3215, 47.70
655.0, 0.3214, 47.71
655.5, 0.3214, 47.71
656.0, 0.3212, 47.73
656.5, 0.3213, 47.72
657.0, 0.3214, 47.71
657.5, 0.3213, 47.73
658.0, 0.3213, 47.72
658.5, 0.3211, 47.74
659.0, 0.3212, 47.73
659.5, 0.3212, 47.74
660.0, 0.3212, 47.74
660.5, 0.3211, 47.74
661.0, 0.3210, 47.75
661.5, 0.3211, 47.74
662.0, 0.3211, 47.75
662.5, 0.3211, 47.74
663.0, 0.3211, 47.74
663.5, 0.3210, 47.75
664.0, 0.3210, 47.75
664.5, 0.3210, 47.75
665.0, 0.3210, 47.75
665.5, 0.3209, 47.77
666.0, 0.3208, 47.77
666.5, 0.3208, 47.78
667.0, 0.3207, 47.78
667.5, 0.3208, 47.77
668.0, 0.3208, 47.78
668.5, 0.3207, 47.78
669.0, 0.3209, 47.77
669.5, 0.3207, 47.78
670.0, 0.3207, 47.79
670.5, 0.3206, 47.80
671.0, 0.3206, 47.80
671.5, 0.3206, 47.79
672.0, 0.3206, 47.80
672.5, 0.3205, 47.81
673.0, 0.3205, 47.81
673.5, 0.3205, 47.81
674.0, 0.3205, 47.81
674.5, 0.3204, 47.82
675.0, 0.3203, 47.83
675.5, 0.3202, 47.84
676.0, 0.3202, 47.84
676.5, 0.3202, 47.84
677.0, 0.3201, 47.85
677.5, 0.3202, 47.84
678.0, 0.3201, 47.85
678.5, 0.3201, 47.85
679.0, 0.3200, 47.86
679.5, 0.3200, 47.86
680.0, 0.3201, 47.85
680.5, 0.3200, 47.87
681.0, 0.3201, 47.86
681.5, 0.3200, 47.87
682.0, 0.3200, 47.87
682.5, 0.3199, 47.88
683.0, 0.3199, 47.87
683.5, 0.3198, 47.88
684.0, 0.3198, 47.89
684.5, 0.3198, 47.89
685.0, 0.3197, 47.90
685.5, 0.3197, 47.90
686.0, 0.3196, 47.90
686.5, 0.3197, 47.89
687.0, 0.3197, 47.90
687.5, 0.3197, 47.90
688.0, 0.3196, 47.90
688.5, 0.3196, 47.91
689.0, 0.3196, 47.91
689.5, 0.3196, 47.91
690.0, 0.3196, 47.90
690.5, 0.3195, 47.92
691.0, 0.3194, 47.93
691.5, 0.3195, 47.91
692.0, 0.3195, 47.92
692.5, 0.3196, 47.91
693.0, 0.3194, 47.93
693.5, 0.3194, 47.93
694.0, 0.3193, 47.94
694.5, 0.3193, 47.94
695.0, 0.3192, 47.95
695.5, 0.3192, 47.96
696.0, 0.3191, 47.96
696.5, 0.3192, 47.95
697.0, 0.3191, 47.96
697.5, 0.3192, 47.95
698.0, 0.3190, 47.97
698.5, 0.3190, 47.97
699.0, 0.3190, 47.97
699.5, 0.3190, 47.98
700.0, 0.3189, 47.98
700.5, 0.3189, 47.99
701.0, 0.3189, 47.99
701.5, 0.3189, 47.99
702.0, 0.3188, 47.99
702.5, 0.3188, 47.99
703.0, 0.3188, 48.00
703.5, 0.3187, 48.01
704.0, 0.3188, 48.00
704.5, 0.3187, 48.00
705.0, 0.3187, 48.01
705.5, 0.3187, 48.01
706.0, 0.3186, 48.01
706.5, 0.3187, 48.01
707.0, 0.3186, 48.02
707.5, 0.3185, 48.02
708.0, 0.3185, 48.02
708.5, 0.3185, 48.03
709.0, 0.3185, 48.03
709.5, 0.3185, 48.03
710.0, 0.3184, 48.04
710.5, 0.3176, 48.13
711.0, 0.3176, 48.13
711.5, 0.3176, 48.13
712.0, 0.3176, 48.13
712.5, 0.3176, 48.13
713.0, 0.3176, 48.13
713.5, 0.3175, 48.14
714.0, 0.3176, 48.13
714.5, 0.3175, 48.14
715.0, 0.3176, 48.13
715.5, 0.3175, 48.13
716.0, 0.3176, 48.13
716.5, 0.3176, 48.13
717.0, 0.3176, 48.13
717.5, 0.3175, 48.13
718.0, 0.3175, 48.14
718.5, 0.3175, 48.14
719.0, 0.3175, 48.14
719.5, 0.3175, 48.14
720.0, 0.3174, 48.15
720.5, 0.3174, 48.15
721.0, 0.3174, 48.15
721.5, 0.3174, 48.15
722.0, 0.3174, 48.15
722.5, 0.3174, 48.15
723.0, 0.3174, 48.15
723.5, 0.3173, 48.16
724.0, 0.3173, 48.16
724.5, 0.3173, 48.16
725.0, 0.3173, 48.16
725.5, 0.3173, 48.16
726.0, 0.3173, 48.17
726.5, 0.3173, 48.16
727.0, 0.3173, 48.17
727.5, 0.3172, 48.17
728.0, 0.3173, 48.16
728.5, 0.3171, 48.18
729.0, 0.3173, 48.16
729.5, 0.3172, 48.17
730.0, 0.3173, 48.17
730.5, 0.3173, 48.16
731.0, 0.3172, 48.17
731.5, 0.3173, 48.16
732.0, 0.3174, 48.15
732.5, 0.3173, 48.16
733.0, 0.3173, 48.16
733.5, 0.3172, 48.17
734.0, 0.3173, 48.17
734.5, 0.3172, 48.18
735.0, 0.3172, 48.17
735.5, 0.3172, 48.17
736.0, 0.3171, 48.18
736.5, 0.3172, 48.17
737.0, 0.3171, 48.18
737.5, 0.3171, 48.18
738.0, 0.3171, 48.19
738.5, 0.3170, 48.19
739.0, 0.3171, 48.19
739.5, 0.3170, 48.19
740.0, 0.3170, 48.20
740.5, 0.3170, 48.20
741.0, 0.3171, 48.19
741.5, 0.3169, 48.20
742.0, 0.3170, 48.19
742.5, 0.3169, 48.21
743.0, 0.3170, 48.20
743.5, 0.3169, 48.21
744.0, 0.3169, 48.21
744.5, 0.3169, 48.21
745.0, 0.3169, 48.21
745.5, 0.3169, 48.21
746.0, 0.3168, 48.21
746.5, 0.3168, 48.21
747.0, 0.3168, 48.22
747.5, 0.3168, 48.22
748.0, 0.3167, 48.23
748.5, 0.3167, 48.23
749.0, 0.3167, 48.23
749.5, 0.3166, 48.24
750.0, 0.3166, 48.24
750.5, 0.3166, 48.24
751.0, 0.3166, 48.24
751.5, 0.3165, 48.25
752.0, 0.3165, 48.25
752.5, 0.3164, 48.26
753.0, 0.3163, 48.27
753.5, 0.3164, 48.26
754.0, 0.3164, 48.26
754.5, 0.3163, 48.27
755.0, 0.3164, 48.26
755.5, 0.3163, 48.28
756.0, 0.3162, 48.28
756.5, 0.3162, 48.28
757.0, 0.3161, 48.29
757.5, 0.3161, 48.30
758.0, 0.3160, 48.31
758.5, 0.3160, 48.31
759.0, 0.3159, 48.32
759.5, 0.3160, 48.31
760.0, 0.3158, 48.33
760.5, 0.3158, 48.33
761.0, 0.3159, 48.32
761.5, 0.3158, 48.33
762.0, 0.3157, 48.34
762.5, 0.3156, 48.35
763.0, 0.3155, 48.36
763.5, 0.3155, 48.36
764.0, 0.3155, 48.37
764.5, 0.3154, 48.37
765.0, 0.3154, 48.37
765.5, 0.3154, 48.37
766.0, 0.3154, 48.37
766.5, 0.3154, 48.38
767.0, 0.3153, 48.39
767.5, 0.3151, 48.40
768.0, 0.3152, 48.39
768.5, 0.3151, 48.41
769.0, 0.3151, 48.41
769.5, 0.3151, 48.41
770.0, 0.3152, 48.40
770.5, 0.3151, 48.41
771.0, 0.3151, 48.41
771.5, 0.3150, 48.42
772.0, 0.3149, 48.43
772.5, 0.3149, 48.43
773.0, 0.3149, 48.43
773.5, 0.3148, 48.44
774.0, 0.3148, 48.44
774.5, 0.3148, 48.44
775.0, 0.3146, 48.46
775.5, 0.3147, 48.45
776.0, 0.3147, 48.45
776.5, 0.3146, 48.47
777.0, 0.3145, 48.47
777.5, 0.3144, 48.49
778.0, 0.3144, 48.48
778.5, 0.3144, 48.49
779.0, 0.3143, 48.49
779.5, 0.3144, 48.48
780.0, 0.3142, 48.51
780.5, 0.3142, 48.50
781.0, 0.3142, 48.51
781.5, 0.3142, 48.51
782.0, 0.3141, 48.52
782.5, 0.3140, 48.53
783.0, 0.3140, 48.53
783.5, 0.3139, 48.53
784.0, 0.3139, 48.54
784.5, 0.3139, 48.54
785.0, 0.3138, 48.55
785.5, 0.3138, 48.55
786.0, 0.3136, 48.57
786.5, 0.3137, 48.56
787.0, 0.3136, 48.58
787.5, 0.3135, 48.58
788.0, 0.3135, 48.58
788.5, 0.3135, 48.59
789.0, 0.3135, 48.58
789.5, 0.3134, 48.59
790.0, 0.3135, 48.59
790.5, 0.3133, 48.61
791.0, 0.3133, 48.61
791.5, 0.3133, 48.61
792.0, 0.3132, 48.62
792.5, 0.3131, 48.63
793.0, 0.3132, 48.62
793.5, 0.3131, 48.63
794.0, 0.3132, 48.62
794.5, 0.3130, 48.64
795.0, 0.3129, 48.65
795.5, 0.3129, 48.65
796.0, 0.3130, 48.64
796.5, 0.3128, 48.66
797.0, 0.3127, 48.67
797.5, 0.3127, 48.68
798.0, 0.3127, 48.68
798.5, 0.3127, 48.67
799.0, 0.3125, 48.70
799.5, 0.3124, 48.70
800.0, 0.3125, 48.70
800.5, 0.3118, 48.78
801.0, 0.3118, 48.77
801.5, 0.3117, 48.79
802.0, 0.3117, 48.79
802.5, 0.3116, 48.79
803.0, 0.3117, 48.79
803.5, 0.3117, 48.79
804.0, 0.3116, 48.80
804.5, 0.3116, 48.80
805.0, 0.3116, 48.80
805.5, 0.3116, 48.80
806.0, 0.3115, 48.81
806.5, 0.3115, 48.81
807.0, 0.3115, 48.81
807.5, 0.3115, 48.80
808.0, 0.3115, 48.81
808.5, 0.3116, 48.80
809.0, 0.3114, 48.82
809.5, 0.3116, 48.80
810.0, 0.3115, 48.80
810.5, 0.3115, 48.81
811.0, 0.3114, 48.82
811.5, 0.3113, 48.83
812.0, 0.3113, 48.83
812.5, 0.3112, 48.84
813.0, 0.3114, 48.82
813.5, 0.3112, 48.84
814.0, 0.3112, 48.85
814.5, 0.3111, 48.86
815.0, 0.3112, 48.84
815.5, 0.3110, 48.86
816.0, 0.3110, 48.86
816.5, 0.3109, 48.88
817.0, 0.3109, 48.88
817.5, 0.3109, 48.87
818.0, 0.3108, 48.88
818.5, 0.3108, 48.88
819.0, 0.3108, 48.89
819.5, 0.3108, 48.89
820.0, 0.3107, 48.90
820.5, 0.3107, 48.90
821.0, 0.3106, 48.91
821.5, 0.3106, 48.91
822.0, 0.3105, 48.92
822.5, 0.3106, 48.91
823.0, 0.3105, 48.92
823.5, 0.3105, 48.92
824.0, 0.3105, 48.92
824.5, 0.3104, 48.94
825.0, 0.3105, 48.93
825.5, 0.3104, 48.93
826.0, 0.3104, 48.94
826.5, 0.3103, 48.95
827.0, 0.3103, 48.94
827.5, 0.3103, 48.94
828.0, 0.3103, 48.94
828.5, 0.3102, 48.95
829.0, 0.3102, 48.95
829.5, 0.3102, 48.95
830.0, 0.3101, 48.96
830.5, 0.3101, 48.97
831.0, 0.3101, 48.96
831.5, 0.3102, 48.96
832.0, 0.3100, 48.97
832.5, 0.3101, 48.96
833.0, 0.3101, 48.96
833.5, 0.3101, 48.96
834.0, 0.3100, 48.98
834.5, 0.3100, 48.98
835.0, 0.3099, 48.99
835.5, 0.3098, 49.00
836.0, 0.3099, 48.99
836.5, 0.3098, 49.00
837.0, 0.3099, 48.99
837.5, 0.3097, 49.01
838.0, 0.3098, 49.00
838.5, 0.3097, 49.01
839.0, 0.3097, 49.01
839.5, 0.3096, 49.02
840.0, 0.3096, 49.02
840.5, 0.3096, 49.02
841.0, 0.3095, 49.04
841.5, 0.3095, 49.04
842.0, 0.3095, 49.04
842.5, 0.3095, 49.03
843.0, 0.3094, 49.04
843.5, 0.3094, 49.04
844.0, 0.3093, 49.06
844.5, 0.3093, 49.05
845.0, 0.3092, 49.07
845.5, 0.3092, 49.07
846.0, 0.3092, 49.07
846.5, 0.3091, 49.08
847.0, 0.3092, 49.07
847.5, 0.3092, 49.07
848.0, 0.3092, 49.07
848.5, 0.3091, 49.08
849.0, 0.3091, 49.09
849.5, 0.3090, 49.09
850.0, 0.3090, 49.09
850.5, 0.3088, 49.11
851.0, 0.3088, 49.11
851.5, 0.3088, 49.12
852.0, 0.3087, 49.12
852.5, 0.3087, 49.12
853.0, 0.3087, 49.13
853.5, 0.3086, 49.13
854.0, 0.3086, 49.13
854.5, 0.3085, 49.14
855.0, 0.3085, 49.14
855.5, 0.3085, 49.15
856.0, 0.3084, 49.16
856.5, 0.3083, 49.17
857.0, 0.3082, 49.18
857.5, 0.3082, 49.18
858.0, 0.3082, 49.18
858.5, 0.3082, 49.18
859.0, 0.3082, 49.18
859.5, 0.3082, 49.18
860.0, 0.3081, 49.19
860.5, 0.3081, 49.20
861.0, 0.3081, 49.20
861.5, 0.3080, 49.20
862.0, 0.3080, 49.21
862.5, 0.3079, 49.22
863.0, 0.3079, 49.21
863.5, 0.3078, 49.22
864.0, 0.3078, 49.23
864.5, 0.3077, 49.24
865.0, 0.3077, 49.24
865.5, 0.3076, 49.25
866.0, 0.3076, 49.25
866.5, 0.3076, 49.24
867.0, 0.3076, 49.25
867.5, 0.3075, 49.26
868.0, 0.3075, 49.26
868.5, 0.3074, 49.27
869.0, 0.3074, 49.28
869.5, 0.3073, 49.28
870.0, 0.3073, 49.29
870.5, 0.3072, 49.29
871.0, 0.3072, 49.30
871.5, 0.3072, 49.30
872.0, 0.3071, 49.31
872.5, 0.3071, 49.31
873.0, 0.3070, 49.32
873.5, 0.3071, 49.31
874.0, 0.3070, 49.31
874.5, 0.3070, 49.32
875.0, 0.3070, 49.32
875.5, 0.3069, 49.33
876.0, 0.3069, 49.33
876.5, 0.3068, 49.34
877.0, 0.3068, 49.34
877.5, 0.3068, 49.34
878.0, 0.3068, 49.35
878.5, 0.3067, 49.35
879.0, 0.3067, 49.35
879.5, 0.3066, 49.36
880.0, 0.3066, 49.36
880.5, 0.3065, 49.37
881.0, 0.3065, 49.38
881.5, 0.3064, 49.38
882.0, 0.3063, 49.39
882.5, 0.3064, 49.38
883.0, 0.3062, 49.40
883.5, 0.3062, 49.41
884.0, 0.3062, 49.41
884.5, 0.3062, 49.41
885.0, 0.3061, 49.42
885.5, 0.3061, 49.42
886.0, 0.3060, 49.43
886.5, 0.3060, 49.43
887.0, 0.3060, 49.44
887.5, 0.3059, 49.44
888.0, 0.3060, 49.44
888.5, 0.3059, 49.44
889.0, 0.3058, 49.45
889.5, 0.3057, 49.46
890.0, 0.3058, 49.46
890.5, 0.3057, 49.46
891.0, 0.3057, 49.47
891.5, 0.3057, 49.47
892.0, 0.3056, 49.48
892.5, 0.3056, 49.48
893.0, 0.3056, 49.48
893.5, 0.3056, 49.48
894.0, 0.3055, 49.49
894.5, 0.3056, 49.48
895.0, 0.3054, 49.50
895.5, 0.3054, 49.49
896.0, 0.3054, 49.49
896.5, 0.3053, 49.51
897.0, 0.3053, 49.51
897.5, 0.3053, 49.51
898.0, 0.3053, 49.51
898.5, 0.3052, 49.52
899.0, 0.3052, 49.52
899.5, 0.3052, 49.53
900.0, 0.3051, 49.53
900.5, 0.3051, 49.53
901.0, 0.3051, 49.54
901.5, 0.3050, 49.54
902.0, 0.3049, 49.55
902.5, 0.3050, 49.55
903.0, 0.3049, 49.55
903.5, 0.3049, 49.56
904.0, 0.3048, 49.57
904.5, 0.3048, 49.56
905.0, 0.3049, 49.56
905.5, 0.3048, 49.57
906.0, 0.3047, 49.58
906.5, 0.3047, 49.57
907.0, 0.3047, 49.58
907.5, 0.3048, 49.57
908.0, 0.3046, 49.58
908.5, 0.3046, 49.59
909.0, 0.3045, 49.61
909.5, 0.3044, 49.61
910.0, 0.3044, 49.62
910.5, 0.3044, 49.61
911.0, 0.3043, 49.62
911.5, 0.3043, 49.62
912.0, 0.3042, 49.63
912.5, 0.3042, 49.63
913.0, 0.3042, 49.63
913.5, 0.3042, 49.64
914.0, 0.3041, 49.64
914.5, 0.3041, 49.65
915.0, 0.3041, 49.65
915.5, 0.3040, 49.65
916.0, 0.3040, 49.66
916.5, 0.3040, 49.66
917.0, 0.3039, 49.68
917.5, 0.3039, 49.67
918.0, 0.3039, 49.67
918.5, 0.3040, 49.66
919.0, 0.3039, 49.67
919.5, 0.3039, 49.68
920.0, 0.3039, 49.67
920.5, 0.3039, 49.67
921.0, 0.3039, 49.67
921.5, 0.3039, 49.67
922.0, 0.3039, 49.67
922.5, 0.3039, 49.67
923.0, 0.3039, 49.67
923.5, 0.3039, 49.67
924.0, 0.3040, 49.66
924.5, 0.3040, 49.66
925.0, 0.3041, 49.65
925.5, 0.3041, 49.65
926.0, 0.3041, 49.64
926.5, 0.3041, 49.65
927.0, 0.3041, 49.64
927.5, 0.3042, 49.64
928.0, 0.3043, 49.62
928.5, 0.3043, 49.63
929.0, 0.3043, 49.63
929.5, 0.3044, 49.61
930.0, 0.3044, 49.61
930.5, 0.3047, 49.58
931.0, 0.3046, 49.59
931.5, 0.3048, 49.57
932.0, 0.3048, 49.56
932.5, 0.3049, 49.55
933.0, 0.3050, 49.55
933.5, 0.3050, 49.54
934.0, 0.3050, 49.54
934.5, 0.3051, 49.53
935.0, 0.3052, 49.52
935.5, 0.3053, 49.51
936.0, 0.3054, 49.50
936.5, 0.3054, 49.50
937.0, 0.3056, 49.48
937.5, 0.3057, 49.46
938.0, 0.3059, 49.45
938.5, 0.3059, 49.44
939.0, 0.3061, 49.42
939.5, 0.3063, 49.39
940.0, 0.3065, 49.38
940.5, 0.3067, 49.35
941.0, 0.3067, 49.35
941.5, 0.3070, 49.32
942.0, 0.3070, 49.31
942.5, 0.3072, 49.29
943.0, 0.3073, 49.28
943.5, 0.3075, 49.27
944.0, 0.3075, 49.27
944.5, 0.3077, 49.24
945.0, 0.3080, 49.21
945.5, 0.3081, 49.19
946.0, 0.3082, 49.19
946.5, 0.3084, 49.16
947.0, 0.3087, 49.13
947.5, 0.3088, 49.11
948.0, 0.3090, 49.09
948.5, 0.3091, 49.08
949.0, 0.3094, 49.04
949.5, 0.3097, 49.01
950.0, 0.3100, 48.98
950.5, 0.3102, 48.96
951.0, 0.3104, 48.94
951.5, 0.3107, 48.90
952.0, 0.3109, 48.87
952.5, 0.3114, 48.82
953.0, 0.3115, 48.81
953.5, 0.3118, 48.78
954.0, 0.3120, 48.75
954.5, 0.3124, 48.71
955.0, 0.3127, 48.68
955.5, 0.3129, 48.65
956.0, 0.3132, 48.62
956.5, 0.3134, 48.60
957.0, 0.3138, 48.55
957.5, 0.3140, 48.53
958.0, 0.3141, 48.51
958.5, 0.3141, 48.51
959.0, 0.3144, 48.48
959.5, 0.3145, 48.47
960.0, 0.3147, 48.45
960.5, 0.3147, 48.45
961.0, 0.3149, 48.43
961.5, 0.3150, 48.41
962.0, 0.3151, 48.41
962.5, 0.3151, 48.41
963.0, 0.3150, 48.41
963.5, 0.3152, 48.40
964.0, 0.3151, 48.40
964.5, 0.3153, 48.38
965.0, 0.3152, 48.40
965.5, 0.3153, 48.39
966.0, 0.3151, 48.40
966.5, 0.3152, 48.40
967.0, 0.3151, 48.40
967.5, 0.3151, 48.41
968.0, 0.3151, 48.40
968.5, 0.3150, 48.42
969.0, 0.3151, 48.40
969.5, 0.3151, 48.41
970.0, 0.3150, 48.41
970.5, 0.3151, 48.41
971.0, 0.3150, 48.42
971.5, 0.3142, 48.50
972.0, 0.3142, 48.51
972.5, 0.3141, 48.51
973.0, 0.3142, 48.51
973.5, 0.3141, 48.52
974.0, 0.3141, 48.51
974.5, 0.3142, 48.50
975.0, 0.3141, 48.52
975.5, 0.3141, 48.52
976.0, 0.3140, 48.52
976.5, 0.3141, 48.52
977.0, 0.3139, 48.54
977.5, 0.3139, 48.54
978.0, 0.3138, 48.55
978.5, 0.3137, 48.56
979.0, 0.3137, 48.57
979.5, 0.3136, 48.58
980.0, 0.3136, 48.57
980.5, 0.3133, 48.61
981.0, 0.3132, 48.61
981.5, 0.3132, 48.61
982.0, 0.3131, 48.62
982.5, 0.3131, 48.63
983.0, 0.3130, 48.64
983.5, 0.3129, 48.65
984.0, 0.3128, 48.66
984.5, 0.3127, 48.67
985.0, 0.3126, 48.68
985.5, 0.3125, 48.70
986.0, 0.3124, 48.71
986.5, 0.3124, 48.71
987.0, 0.3122, 48.73
987.5, 0.3121, 48.74
988.0, 0.3119, 48.76
988.5, 0.3118, 48.78
989.0, 0.3118, 48.78
989.5, 0.3116, 48.80
990.0, 0.3114, 48.83
990.5, 0.3113, 48.83
991.0, 0.3110, 48.86
991.5, 0.3110, 48.86
992.0, 0.3108, 48.89
992.5, 0.3107, 48.90
993.0, 0.3104, 48.93
993.5, 0.3103, 48.95
994.0, 0.3102, 48.96
994.5, 0.3099, 48.99
995.0, 0.3098, 49.00
995.5, 0.3095, 49.03
996.0, 0.3093, 49.06
996.5, 0.3092, 49.06
997.0, 0.3090, 49.09
997.5, 0.3088, 49.11
998.0, 0.3086, 49.14
998.5, 0.3085, 49.15
999.0, 0.3083, 49.17
999.5, 0.3082, 49.18
1000.0, 0.3080, 49.21
1000.5, 0.3078, 49.22
1001.0, 0.3078, 49.23
1001.5, 0.3075, 49.26
1002.0, 0.3074, 49.27
1002.5, 0.3071, 49.30
1003.0, 0.3070, 49.32
1003.5, 0.3069, 49.33
1004.0, 0.3068, 49.34
1004.5, 0.3065, 49.37
1005.0, 0.3063, 49.39
1005.5, 0.3061, 49.42
1006.0, 0.3059, 49.44
1006.5, 0.3059, 49.45
1007.0, 0.3057, 49.46
1007.5, 0.3054, 49.50
1008.0, 0.3053, 49.51
1008.5, 0.3052, 49.52
1009.0, 0.3049, 49.55
1009.5, 0.3048, 49.57
1010.0, 0.3045, 49.60
1010.5, 0.3042, 49.63
1011.0, 0.3042, 49.64
1011.5, 0.3039, 49.67
1012.0, 0.3037, 49.69
1012.5, 0.3034, 49.73
1013.0, 0.3033, 49.74
1013.5, 0.3030, 49.77
1014.0, 0.3030, 49.78
1014.5, 0.3026, 49.82
1015.0, 0.3025, 49.83
1015.5, 0.3018, 49.91
1016.0, 0.3017, 49.93
1016.5, 0.3016, 49.93
1017.0, 0.3013, 49.96
1017.5, 0.3012, 49.98
1018.0, 0.3010, 50.00
1018.5, 0.3009, 50.02
1019.0, 0.3008, 50.03
1019.5, 0.3006, 50.05
1020.0, 0.3003, 50.08
1020.5, 0.3003, 50.09
1021.0, 0.3001, 50.10
1021.5, 0.3000, 50.11
1022.0, 0.2999, 50.13
1022.5, 0.2998, 50.15
1023.0, 0.2995, 50.18
1023.5, 0.2993, 50.20
1024.0, 0.2992, 50.21
1024.5, 0.2990, 50.23
1025.0, 0.2989, 50.25
1025.5, 0.2985, 50.29
1026.0, 0.2986, 50.28
1026.5, 0.2984, 50.31
1027.0, 0.2981, 50.34
1027.5, 0.2979, 50.36
1028.0, 0.2978, 50.37
1028.5, 0.2975, 50.41
1029.0, 0.2974, 50.42
1029.5, 0.2973, 50.43
1030.0, 0.2970, 50.47
1030.5, 0.2970, 50.46
1031.0, 0.2969, 50.48
1031.5, 0.2967, 50.50
1032.0, 0.2965, 50.52
1032.5, 0.2963, 50.55
1033.0, 0.2963, 50.55
1033.5, 0.2960, 50.58
1034.0, 0.2960, 50.58
1034.5, 0.2957, 50.62
1035.0, 0.2954, 50.65
1035.5, 0.2955, 50.64
1036.0, 0.2952, 50.67
1036.5, 0.2952, 50.68
1037.0, 0.2950, 50.70
1037.5, 0.2947, 50.74
1038.0, 0.2948, 50.72
1038.5, 0.2946, 50.75
1039.0, 0.2944, 50.77
1039.5, 0.2941, 50.80
1040.0, 0.2939, 50.82
1040.5, 0.2940, 50.82
1041.0, 0.2936, 50.86
1041.5, 0.2936, 50.86
1042.0, 0.2932, 50.91
1042.5, 0.2932, 50.90
1043.0, 0.2930, 50.93
1043.5, 0.2930, 50.93
1044.0, 0.2928, 50.95
1044.5, 0.2926, 50.98
1045.0, 0.2926, 50.97
1045.5, 0.2926, 50.98
1046.0, 0.2924, 51.00
1046.5, 0.2917, 51.09
1047.0, 0.2914, 51.12
1047.5, 0.2915, 51.11
1048.0, 0.2914, 51.12
1048.5, 0.2912, 51.14
1049.0, 0.2912, 51.15
1049.5, 0.2910, 51.16
1050.0, 0.2911, 51.15
1050.5, 0.2910, 51.17
1051.0, 0.2908, 51.19
1051.5, 0.2907, 51.21
1052.0, 0.2904, 51.24
1052.5, 0.2905, 51.23
1053.0, 0.2903, 51.25
1053.5, 0.2903, 51.25
1054.0, 0.2900, 51.28
1054.5, 0.2899, 51.30
1055.0, 0.2899, 51.29
1055.5, 0.2898, 51.31
1056.0, 0.2898, 51.31
1056.5, 0.2896, 51.34
1057.0, 0.2894, 51.36
1057.5, 0.2894, 51.35
1058.0, 0.2892, 51.38
1058.5, 0.2891, 51.39
1059.0, 0.2888, 51.42
1059.5, 0.2889, 51.42
1060.0, 0.2891, 51.39
1060.5, 0.2888, 51.43
1061.0, 0.2889, 51.42
1061.5, 0.2884, 51.47
1062.0, 0.2887, 51.45
1062.5, 0.2886, 51.45
1063.0, 0.2886, 51.46
1063.5, 0.2885, 51.46
1064.0, 0.2883, 51.48
1064.5, 0.2886, 51.45
1065.0, 0.2886, 51.45
1065.5, 0.2887, 51.44
1066.0, 0.2884, 51.47
1066.5, 0.2881, 51.51
1067.0, 0.2883, 51.48
1067.5, 0.2882, 51.50
1068.0, 0.2883, 51.49
1068.5, 0.2882, 51.49
1069.0, 0.2881, 51.51
1069.5, 0.2881, 51.51
1070.0, 0.2882, 51.50
1070.5, 0.2878, 51.55
1071.0, 0.2876, 51.57
1071.5, 0.2876, 51.57
1072.0, 0.2877, 51.56
1072.5, 0.2867, 51.67
1073.0, 0.2867, 51.68
1073.5, 0.2868, 51.66
1074.0, 0.2867, 51.68
1074.5, 0.2870, 51.64
1075.0, 0.2868, 51.66
1075.5, 0.2870, 51.64
1076.0, 0.2869, 51.66
1076.5, 0.2867, 51.67
1077.0, 0.2868, 51.66
1077.5, 0.2868, 51.66
1078.0, 0.2869, 51.65
1078.5, 0.2867, 51.68
1079.0, 0.2870, 51.64
1079.5, 0.2870, 51.65
1080.0, 0.2871, 51.63
1080.5, 0.2868, 51.66
1081.0, 0.2867, 51.68
1081.5, 0.2869, 51.65
1082.0, 0.2870, 51.64
1082.5, 0.2872, 51.62
1083.0, 0.2874, 51.60
1083.5, 0.2878, 51.54
1084.0, 0.2885, 51.46
1084.5, 0.2891, 51.39
1085.0, 0.2897, 51.32
1085.5, 0.2902, 51.27
1086.0, 0.2902, 51.26
1086.5, 0.2902, 51.27
1087.0, 0.2901, 51.28
1087.5, 0.2897, 51.32
1088.0, 0.2892, 51.38
1088.5, 0.2887, 51.43
1089.0, 0.2889, 51.42
1089.5, 0.2888, 51.43
1090.0, 0.2887, 51.44
1090.5, 0.2882, 51.50
1091.0, 0.2878, 51.55
1091.5, 0.2879, 51.54
1092.0, 0.2879, 51.53
1092.5, 0.2878, 51.55
1093.0, 0.2877, 51.56
1093.5, 0.2878, 51.55
1094.0, 0.2881, 51.51
1094.5, 0.2883, 51.49
1095.0, 0.2882, 51.50
1095.5, 0.2883, 51.49
1096.0, 0.2888, 51.43
1096.5, 0.2897, 51.32
1097.0, 0.2904, 51.24
1097.5, 0.2927, 50.97
1098.0, 0.2945, 50.76
1098.5, 0.2962, 50.56
1099.0, 0.2967, 50.51
1099.5, 0.2969, 50.48
1100.0, 0.2970, 50.46
