Sample Name, Sample-2
Time, March 10 15:32:04 2023
Operator, Smith
Lamp, 0
Slit,0.0
Scan From, 1100.0nm
Scan To, 190.0nm
Scan Step, 0.5nm
Sample Filter, 5
memo, 
WL(nm), Abs, T%
190.0, 1.8656, 1.36
190.5, 1.9382, 1.15
191.0, 2.0243, 0.95
191.5, 2.0698, 0.85
192.0, 2.1035, 0.79
192.5, 2.1363, 0.73
193.0, 2.1516, 0.71
193.5, 2.1582, 0.69
194.0, 2.1766, 0.67
194.5, 2.2180, 0.61
195.0, 2.2217, 0.60
195.5, 2.2616, 0.55
196.0, 2.3204, 0.48
196.5, 2.3327, 0.46
197.0, 2.3396, 0.46
197.5, 2.3464, 0.45
198.0, 2.3545, 0.44
198.5, 2.3251, 0.47
199.0, 2.3186, 0.48
199.5, 2.3066, 0.49
200.0, 2.3205, 0.48
200.5, 2.3228, 0.48
201.0, 2.3225, 0.48
201.5, 2.2931, 0.51
202.0, 2.2866, 0.52
202.5, 2.2617, 0.55
203.0, 2.2270, 0.59
203.5, 2.1880, 0.65
204.0, 2.1487, 0.71
204.5, 2.1194, 0.76
205.0, 2.0895, 0.81
205.5, 2.0611, 0.87
206.0, 2.0215, 0.95
206.5, 1.9823, 1.04
207.0, 1.9443, 1.14
207.5, 1.9039, 1.25
208.0, 1.8592, 1.38
208.5, 1.8173, 1.52
209.0, 1.7761, 1.67
209.5, 1.7384, 1.83
210.0, 1.7004, 1.99
210.5, 1.6673, 2.15
211.0, 1.6361, 2.31
211.5, 1.6031, 2.49
212.0, 1.5706, 2.69
212.5, 1.5383, 2.90
213.0, 1.5050, 3.13
213.5, 1.4743, 3.36
214.0, 1.4429, 3.61
214.5, 1.4169, 3.83
215.0, 1.3894, 4.08
215.5, 1.3630, 4.34
216.0, 1.3397, 4.57
216.5, 1.3164, 4.83
217.0, 1.2922, 5.10
217.5, 1.2683, 5.39
218.0, 1.2464, 5.67
218.5, 1.2248, 5.96
219.0, 1.2038, 6.25
219.5, 1.1834, 6.56
220.0, 1.1632, 6.87
220.5, 1.1448, 7.17
221.0, 1.1267, 7.47
221.5, 1.1081, 7.80
222.0, 1.0901, 8.13
222.5, 1.0711, 8.49
223.0, 1.0535, 8.84
223.5, 1.0359, 9.21
224.0, 1.0197, 9.56
224.5, 1.0027, 9.94
225.0, 0.9857, 10.33
225.5, 0.9697, 10.72
226.0, 0.9537, 11.13
226.5, 0.9368, 11.57
227.0, 0.9197, 12.03
227.5, 0.9032, 12.50
228.0, 0.8870, 12.97
228.5, 0.8701, 13.49
229.0, 0.8532, 14.02
229.5, 0.8362, 14.58
230.0, 0.8193, 15.16
230.5, 0.8026, 15.75
231.0, 0.7847, 16.42
231.5, 0.7668, 17.11
232.0, 0.7490, 17.83
232.5, 0.7312, 18.57
233.0, 0.7142, 19.31
233.5, 0.6971, 20.08
234.0, 0.6804, 20.88
234.5, 0.6641, 21.67
235.0, 0.6480, 22.49
235.5, 0.6339, 23.23
236.0, 0.6192, 24.03
236.5, 0.6051, 24.83
237.0, 0.5912, 25.63
237.5, 0.5781, 26.42
238.0, 0.5658, 27.17
238.5, 0.5538, 27.94
239.0, 0.5427, 28.66
239.5, 0.5322, 29.36
240.0, 0.5227, 30.01
240.5, 0.5139, 30.62
241.0, 0.5053, 31.24
241.5, 0.4977, 31.79
242.0, 0.4900, 32.36
242.5, 0.4827, 32.91
243.0, 0.4761, 33.41
243.5, 0.4695, 33.92
244.0, 0.4635, 34.40
244.5, 0.4578, 34.85
245.0, 0.4525, 35.28
245.5, 0.4477, 35.67
246.0, 0.4432, 36.04
246.5, 0.4387, 36.41
247.0, 0.4344, 36.78
247.5, 0.4305, 37.11
248.0, 0.4269, 37.42
248.5, 0.4231, 37.75
249.0, 0.4196, 38.06
249.5, 0.4164, 38.33
250.0, 0.4135, 38.60
250.5, 0.4104, 38.86
251.0, 0.4076, 39.12
251.5, 0.4049, 39.36
252.0, 0.4024, 39.59
252.5, 0.4000, 39.81
253.0, 0.3978, 40.01
253.5, 0.3952, 40.25
254.0, 0.3934, 40.42
254.5, 0.3905, 40.69
255.0, 0.3888, 40.85
255.5, 0.3869, 41.03
256.0, 0.3851, 41.20
256.5, 0.3835, 41.35
257.0, 0.3820, 41.50
257.5, 0.3805, 41.64
258.0, 0.3790, 41.78
258.5, 0.3776, 41.91
259.0, 0.3763, 42.04
259.5, 0.3751, 42.16
260.0, 0.3740, 42.26
260.5, 0.3727, 42.39
261.0, 0.3717, 42.49
261.5, 0.3707, 42.59
262.0, 0.3697, 42.69
262.5, 0.3685, 42.81
263.0, 0.3675, 42.90
263.5, 0.3665, 43.00
264.0, 0.3658, 43.07
264.5, 0.3651, 43.14
265.0, 0.3644, 43.21
265.5, 0.3638, 43.27
266.0, 0.3632, 43.34
266.5, 0.3624, 43.41
267.0, 0.3617, 43.48
267.5, 0.3611, 43.55
268.0, 0.3604, 43.61
268.5, 0.3597, 43.68
269.0, 0.3592, 43.73
269.5, 0.3587, 43.78
270.0, 0.3582, 43.84
270.5, 0.3576, 43.89
271.0, 0.3570, 43.95
271.5, 0.3564, 44.01
272.0, 0.3560, 44.06
272.5, 0.3553, 44.13
273.0, 0.3546, 44.20
273.5, 0.3542, 44.24
274.0, 0.3537, 44.29
274.5, 0.3532, 44.34
275.0, 0.3526, 44.40
275.5, 0.3520, 44.46
276.0, 0.3513, 44.54
276.5, 0.3507, 44.60
277.0, 0.3500, 44.66
277.5, 0.3492, 44.75
278.0, 0.3483, 44.84
278.5, 0.3476, 44.91
279.0, 0.3468, 45.00
279.5, 0.3460, 45.08
280.0, 0.3451, 45.18
280.5, 0.3440, 45.29
281.0, 0.3429, 45.40
281.5, 0.3419, 45.51
282.0, 0.3407, 45.63
282.5, 0.3395, 45.76
283.0, 0.3384, 45.88
283.5, 0.3370, 46.02
284.0, 0.3358, 46.16
284.5, 0.3342, 46.32
285.0, 0.3328, 46.48
285.5, 0.3309, 46.68
286.0, 0.3290, 46.88
286.5, 0.3271, 47.09
287.0, 0.3251, 47.30
287.5, 0.3230, 47.53
288.0, 0.3212, 47.73
288.5, 0.3193, 47.94
289.0, 0.3175, 48.14
289.5, 0.3156, 48.35
290.0, 0.3139, 48.54
290.5, 0.3119, 48.76
291.0, 0.3100, 48.97
291.5, 0.3078, 49.23
292.0, 0.3059, 49.44
292.5, 0.3040, 49.66
293.0, 0.3020, 49.89
293.5, 0.3002, 50.10
294.0, 0.2983, 50.32
294.5, 0.2964, 50.53
295.0, 0.2947, 50.74
295.5, 0.2928, 50.96
296.0, 0.2910, 51.17
296.5, 0.2893, 51.37
297.0, 0.2876, 51.57
297.5, 0.2861, 51.74
298.0, 0.2846, 51.92
298.5, 0.2833, 52.08
299.0, 0.2819, 52.25
299.5, 0.2807, 52.40
300.0, 0.2793, 52.57
300.5, 0.2781, 52.71
301.0, 0.2770, 52.85
301.5, 0.2756, 53.01
302.0, 0.2744, 53.16
302.5, 0.2733, 53.30
303.0, 0.2723, 53.43
303.5, 0.2713, 53.54
304.0, 0.2703, 53.67
304.5, 0.2694, 53.77
305.0, 0.2683, 53.92
305.5, 0.2674, 54.02
306.0, 0.2665, 54.14
306.5, 0.2655, 54.26
307.0, 0.2646, 54.38
307.5, 0.2638, 54.48
308.0, 0.2630, 54.58
308.5, 0.2623, 54.66
309.0, 0.2616, 54.75
309.5, 0.2608, 54.85
310.0, 0.2601, 54.94
310.5, 0.2594, 55.03
311.0, 0.2587, 55.12
311.5, 0.2579, 55.22
312.0, 0.2572, 55.31
312.5, 0.2566, 55.38
313.0, 0.2561, 55.44
313.5, 0.2555, 55.52
314.0, 0.2551, 55.57
314.5, 0.2545, 55.65
315.0, 0.2540, 55.72
315.5, 0.2533, 55.81
316.0, 0.2530, 55.85
316.5, 0.2521, 55.96
317.0, 0.2517, 56.02
317.5, 0.2513, 56.06
318.0, 0.2508, 56.13
318.5, 0.2504, 56.18
319.0, 0.2499, 56.24
319.5, 0.2494, 56.31
320.0, 0.2489, 56.38
320.5, 0.2484, 56.44
321.0, 0.2479, 56.50
321.5, 0.2474, 56.58
322.0, 0.2468, 56.65
322.5, 0.2465, 56.69
323.0, 0.2461, 56.74
323.5, 0.2457, 56.79
324.0, 0.2453, 56.84
324.5, 0.2448, 56.91
325.0, 0.2443, 56.97
325.5, 0.2440, 57.01
326.0, 0.2435, 57.08
326.5, 0.2429, 57.16
327.0, 0.2426, 57.21
327.5, 0.2424, 57.23
328.0, 0.2421, 57.27
328.5, 0.2418, 57.31
329.0, 0.2412, 57.38
329.5, 0.2408, 57.44
330.0, 0.2405, 57.47
330.5, 0.2402, 57.52
331.0, 0.2396, 57.60
331.5, 0.2390, 57.68
332.0, 0.2388, 57.70
332.5, 0.2385, 57.74
333.0, 0.2383, 57.77
333.5, 0.2381, 57.80
334.0, 0.2375, 57.88
334.5, 0.2371, 57.93
335.0, 0.2367, 57.98
335.5, 0.2364, 58.03
336.0, 0.2359, 58.09
336.5, 0.2353, 58.17
337.0, 0.2353, 58.17
337.5, 0.2350, 58.21
338.0, 0.2349, 58.23
338.5, 0.2344, 58.29
339.0, 0.2341, 58.34
339.5, 0.2337, 58.39
340.0, 0.2330, 58.48
340.5, 0.2330, 58.48
341.0, 0.2325, 58.55
341.5, 0.2324, 58.55
342.0, 0.2319, 58.63
342.5, 0.2316, 58.67
343.0, 0.2314, 58.69
343.5, 0.2313, 58.70
344.0, 0.2310, 58.75
344.5, 0.2308, 58.78
345.0, 0.2303, 58.84
345.5, 0.2300, 58.89
346.0, 0.2296, 58.93
346.5, 0.2293, 58.98
347.0, 0.2291, 59.01
347.5, 0.2287, 59.06
348.0, 0.2286, 59.07
348.5, 0.2286, 59.08
349.0, 0.2283, 59.12
349.5, 0.2279, 59.17
350.0, 0.2275, 59.22
350.5, 0.2270, 59.29
351.0, 0.2268, 59.31
351.5, 0.2265, 59.35
352.0, 0.2265, 59.37
352.5, 0.2260, 59.43
353.0, 0.2259, 59.44
353.5, 0.2258, 59.45
354.0, 0.2257, 59.47
354.5, 0.2253, 59.52
355.0, 0.2249, 59.58
355.5, 0.2246, 59.62
356.0, 0.2243, 59.66
356.5, 0.2241, 59.69
357.0, 0.2240, 59.71
357.5, 0.2238, 59.74
358.0, 0.2235, 59.77
358.5, 0.2233, 59.80
359.0, 0.2231, 59.83
359.5, 0.2228, 59.86
360.0, 0.2225, 59.91
360.5, 0.2221, 59.96
361.0, 0.2219, 59.99
361.5, 0.2217, 60.01
362.0, 0.2217, 60.03
362.5, 0.2215, 60.04
363.0, 0.2214, 60.07
363.5, 0.2211, 60.10
364.0, 0.2211, 60.11
364.5, 0.2207, 60.16
365.0, 0.2203, 60.22
365.5, 0.2199, 60.26
366.0, 0.2196, 60.31
366.5, 0.2197, 60.30
367.0, 0.2196, 60.32
367.5, 0.2195, 60.33
368.0, 0.2193, 60.36
368.5, 0.2190, 60.39
369.0, 0.2188, 60.42
369.5, 0.2185, 60.47
370.0, 0.2184, 60.48
370.5, 0.2183, 60.50
371.0, 0.2181, 60.52
371.5, 0.2180, 60.53
372.0, 0.2176, 60.58
372.5, 0.2175, 60.60
373.0, 0.2175, 60.61
373.5, 0.2174, 60.61
374.0, 0.2172, 60.65
374.5, 0.2168, 60.71
375.0, 0.2164, 60.76
375.5, 0.2163, 60.76
376.0, 0.2163, 60.77
376.5, 0.2161, 60.79
377.0, 0.2160, 60.81
377.5, 0.2157, 60.85
378.0, 0.2159, 60.82
378.5, 0.2156, 60.87
379.0, 0.2153, 60.91
379.5, 0.2150, 60.96
380.0, 0.2149, 60.97
380.5, 0.2148, 60.98
381.0, 0.2148, 60.99
381.5, 0.2143, 61.05
382.0, 0.2143, 61.05
382.5, 0.2142, 61.06
383.0, 0.2142, 61.07
383.5, 0.2140, 61.09
384.0, 0.2135, 61.17
384.5, 0.2134, 61.18
385.0, 0.2132, 61.20
385.5, 0.2132, 61.21
386.0, 0.2131, 61.22
386.5, 0.2128, 61.26
387.0, 0.2127, 61.27
387.5, 0.2126, 61.29
388.0, 0.2126, 61.30
388.5, 0.2123, 61.33
389.0, 0.2120, 61.37
389.5, 0.2119, 61.39
390.0, 0.2117, 61.42
390.5, 0.2119, 61.39
391.0, 0.2116, 61.43
391.5, 0.2116, 61.43
392.0, 0.2112, 61.48
392.5, 0.2113, 61.47
393.0, 0.2112, 61.49
393.5, 0.2110, 61.52
394.0, 0.2108, 61.55
394.5, 0.2107, 61.56
395.0, 0.2105, 61.60
395.5, 0.2104, 61.60
396.0, 0.2102, 61.62
396.5, 0.2101, 61.65
397.0, 0.2099, 61.67
397.5, 0.2100, 61.66
398.0, 0.2098, 61.69
398.5, 0.2096, 61.71
399.0, 0.2095, 61.74
399.5, 0.2093, 61.76
400.0, 0.2092, 61.77
400.5, 0.2091, 61.79
401.0, 0.2091, 61.79
401.5, 0.2089, 61.81
402.0, 0.2089, 61.82
402.5, 0.2087, 61.84
403.0, 0.2085, 61.87
403.5, 0.2084, 61.89
404.0, 0.2083, 61.91
404.5, 0.2080, 61.94
405.0, 0.2081, 61.93
405.5, 0.2080, 61.94
406.0, 0.2078, 61.97
406.5, 0.2077, 61.99
407.0, 0.2077, 61.99
407.5, 0.2076, 62.00
408.0, 0.2074, 62.02
408.5, 0.2073, 62.05
409.0, 0.2070, 62.08
409.5, 0.2069, 62.10
410.0, 0.2070, 62.09
410.5, 0.2069, 62.11
411.0, 0.2067, 62.13
411.5, 0.2066, 62.14
412.0, 0.2065, 62.15
412.5, 0.2065, 62.15
413.0, 0.2063, 62.19
413.5, 0.2062, 62.20
414.0, 0.2060, 62.24
414.5, 0.2059, 62.25
415.0, 0.2059, 62.25
415.5, 0.2058, 62.25
416.0, 0.2056, 62.28
416.5, 0.2055, 62.30
417.0, 0.2055, 62.31
417.5, 0.2055, 62.30
418.0, 0.2053, 62.34
418.5, 0.2052, 62.35
419.0, 0.2050, 62.38
419.5, 0.2049, 62.38
420.0, 0.2049, 62.39
420.5, 0.2048, 62.41
421.0, 0.2046, 62.42
421.5, 0.2046, 62.44
422.0, 0.2045, 62.45
422.5, 0.2045, 62.45
423.0, 0.2043, 62.47
423.5, 0.2042, 62.48
424.0, 0.2040, 62.51
424.5, 0.2040, 62.52
425.0, 0.2040, 62.52
425.5, 0.2039, 62.53
426.0, 0.2038, 62.55
426.5, 0.2037, 62.56
427.0, 0.2036, 62.58
427.5, 0.2035, 62.58
428.0, 0.2034, 62.60
428.5, 0.2034, 62.60
429.0, 0.2033, 62.62
429.5, 0.2032, 62.64
430.0, 0.2031, 62.64
430.5, 0.2031, 62.65
431.0, 0.2030, 62.66
431.5, 0.2029, 62.67
432.0, 0.2028, 62.68
432.5, 0.2028, 62.69
433.0, 0.2027, 62.71
433.5, 0.2025, 62.73
434.0, 0.2025, 62.74
434.5, 0.2024, 62.75
435.0, 0.2024, 62.75
435.5, 0.2023, 62.76
436.0, 0.2022, 62.77
436.5, 0.2022, 62.78
437.0, 0.2020, 62.80
437.5, 0.2020, 62.80
438.0, 0.2019, 62.82
438.5, 0.2019, 62.82
439.0, 0.2018, 62.84
439.5, 0.2018, 62.84
440.0, 0.2016, 62.86
440.5, 0.2016, 62.87
441.0, 0.2015, 62.88
441.5, 0.2015, 62.88
442.0, 0.2013, 62.90
442.5, 0.2013, 62.91
443.0, 0.2012, 62.92
443.5, 0.2012, 62.92
444.0, 0.2012, 62.93
444.5, 0.2010, 62.95
445.0, 0.2011, 62.94
445.5, 0.2010, 62.95
446.0, 0.2010, 62.96
446.5, 0.2007, 62.99
447.0, 0.2007, 63.00
447.5, 0.2006, 63.01
448.0, 0.2007, 63.00
448.5, 0.2005, 63.03
449.0, 0.2004, 63.03
449.5, 0.2003, 63.05
450.0, 0.2005, 63.02
450.5, 0.2002, 63.07
451.0, 0.2002, 63.07
451.5, 0.2001, 63.08
452.0, 0.2001, 63.08
452.5, 0.2000, 63.10
453.0, 0.1998, 63.12
453.5, 0.1999, 63.11
454.0, 0.1999, 63.10
454.5, 0.1998, 63.12
455.0, 0.1997, 63.14
455.5, 0.1995, 63.16
456.0, 0.1997, 63.14
456.5, 0.1997, 63.14
457.0, 0.1995, 63.17
457.5, 0.1994, 63.19
458.0, 0.1994, 63.18
458.5, 0.1993, 63.20
459.0, 0.1994, 63.18
459.5, 0.1993, 63.20
460.0, 0.1991, 63.23
460.5, 0.1991, 63.23
461.0, 0.1991, 63.23
461.5, 0.1990, 63.25
462.0, 0.1989, 63.25
462.5, 0.1989, 63.26
463.0, 0.1988, 63.27
463.5, 0.1988, 63.27
464.0, 0.1989, 63.26
464.5, 0.1986, 63.29
465.0, 0.1986, 63.30
465.5, 0.1986, 63.30
466.0, 0.1986, 63.29
466.5, 0.1986, 63.30
467.0, 0.1985, 63.31
467.5, 0.1984, 63.33
468.0, 0.1983, 63.34
468.5, 0.1984, 63.32
469.0, 0.1983, 63.34
469.5, 0.1982, 63.36
470.0, 0.1981, 63.37
470.5, 0.1982, 63.36
471.0, 0.1982, 63.36
471.5, 0.1981, 63.37
472.0, 0.1980, 63.38
472.5, 0.1979, 63.40
473.0, 0.1978, 63.41
473.5, 0.1979, 63.40
474.0, 0.1978, 63.41
474.5, 0.1977, 63.43
475.0, 0.1976, 63.44
475.5, 0.1976, 63.44
476.0, 0.1976, 63.45
476.5, 0.1976, 63.45
477.0, 0.1975, 63.46
477.5, 0.1975, 63.46
478.0, 0.1975, 63.47
478.5, 0.1975, 63.46
479.0, 0.1974, 63.48
479.5, 0.1972, 63.50
480.0, 0.1972, 63.50
480.5, 0.1972, 63.51
481.0, 0.1972, 63.50
481.5, 0.1971, 63.52
482.0, 0.1972, 63.50
482.5, 0.1970, 63.53
483.0, 0.1970, 63.53
483.5, 0.1970, 63.53
484.0, 0.1969, 63.54
484.5, 0.1968, 63.57
485.0, 0.1967, 63.57
485.5, 0.1968, 63.56
486.0, 0.1968, 63.57
486.5, 0.1967, 63.57
487.0, 0.1967, 63.58
487.5, 0.1966, 63.59
488.0, 0.1967, 63.58
488.5, 0.1966, 63.60
489.0, 0.1965, 63.61
489.5, 0.1964, 63.62
490.0, 0.1965, 63.61
490.5, 0.1964, 63.62
491.0, 0.1964, 63.62
491.5, 0.1963, 63.64
492.0, 0.1963, 63.64
492.5, 0.1962, 63.65
493.0, 0.1963, 63.64
493.5, 0.1962, 63.65
494.0, 0.1961, 63.67
494.5, 0.1960, 63.68
495.0, 0.1959, 63.69
495.5, 0.1960, 63.68
496.0, 0.1960, 63.69
496.5, 0.1959, 63.70
497.0, 0.1958, 63.70
497.5, 0.1958, 63.71
498.0, 0.1958, 63.71
498.5, 0.1957, 63.72
499.0, 0.1956, 63.74
499.5, 0.1956, 63.74
500.0, 0.1955, 63.75
500.5, 0.1955, 63.75
501.0, 0.1956, 63.74
501.5, 0.1955, 63.75
502.0, 0.1955, 63.76
502.5, 0.1954, 63.77
503.0, 0.1954, 63.76
503.5, 0.1953, 63.78
504.0, 0.1952, 63.79
504.5, 0.1952, 63.80
505.0, 0.1953, 63.78
505.5, 0.1952, 63.79
506.0, 0.1952, 63.80
506.5, 0.1952, 63.80
507.0, 0.1952, 63.79
507.5, 0.1952, 63.80
508.0, 0.1952, 63.80
508.5, 0.1951, 63.82
509.0, 0.1951, 63.82
509.5, 0.1949, 63.84
510.0, 0.1951, 63.82
510.5, 0.1951, 63.82
511.0, 0.1950, 63.83
511.5, 0.1949, 63.85
512.0, 0.1949, 63.84
512.5, 0.1950, 63.83
513.0, 0.1950, 63.82
513.5, 0.1949, 63.84
514.0, 0.1948, 63.86
514.5, 0.1948, 63.86
515.0, 0.1949, 63.84
515.5, 0.1948, 63.86
516.0, 0.1948, 63.86
516.5, 0.1945, 63.89
517.0, 0.1947, 63.88
517.5, 0.1946, 63.89
518.0, 0.1946, 63.89
518.5, 0.1946, 63.89
519.0, 0.1946, 63.89
519.5, 0.1945, 63.90
520.0, 0.1946, 63.89
520.5, 0.1945, 63.89
521.0, 0.1944, 63.91
521.5, 0.1944, 63.92
522.0, 0.1943, 63.92
522.5, 0.1944, 63.91
523.0, 0.1943, 63.93
523.5, 0.1942, 63.95
524.0, 0.1943, 63.93
524.5, 0.1943, 63.93
525.0, 0.1942, 63.94
525.5, 0.1942, 63.95
526.0, 0.1942, 63.94
526.5, 0.1942, 63.95
527.0, 0.1941, 63.96
527.5, 0.1941, 63.97
528.0, 0.1940, 63.97
528.5, 0.1940, 63.97
529.0, 0.1941, 63.96
529.5, 0.1942, 63.95
530.0, 0.1941, 63.96
530.5, 0.1941, 63.96
531.0, 0.1939, 63.99
531.5, 0.1940, 63.97
532.0, 0.1940, 63.98
532.5, 0.1940, 63.98
533.0, 0.1939, 63.98
533.5, 0.1938, 64.00
534.0, 0.1939, 63.99
534.5, 0.1939, 63.99
535.0, 0.1939, 63.99
535.5, 0.1938, 64.00
536.0, 0.1938, 64.01
536.5, 0.1938, 64.01
537.0, 0.1938, 64.00
537.5, 0.1938, 64.00
538.0, 0.1937, 64.02
538.5, 0.1936, 64.03
539.0, 0.1937, 64.01
539.5, 0.1936, 64.03
540.0, 0.1938, 64.01
540.5, 0.1935, 64.04
541.0, 0.1936, 64.03
541.5, 0.1936, 64.03
542.0, 0.1937, 64.02
542.5, 0.1936, 64.04
543.0, 0.1935, 64.04
543.5, 0.1935, 64.05
544.0, 0.1934, 64.06
544.5, 0.1936, 64.04
545.0, 0.1935, 64.05
545.5, 0.1934, 64.06
546.0, 0.1934, 64.06
546.5, 0.1933, 64.07
547.0, 0.1934, 64.06
547.5, 0.1934, 64.07
548.0, 0.1934, 64.07
548.5, 0.1933, 64.07
549.0, 0.1934, 64.07
549.5, 0.1934, 64.06
550.0, 0.1934, 64.07
550.5, 0.1933, 64.08
551.0, 0.1933, 64.08
551.5, 0.1932, 64.10
552.0, 0.1932, 64.09
552.5, 0.1931, 64.10
553.0, 0.1931, 64.10
553.5, 0.1931, 64.11
554.0, 0.1931, 64.11
554.5, 0.1931, 64.11
555.0, 0.1930, 64.12
555.5, 0.1930, 64.12
556.0, 0.1930, 64.12
556.5, 0.1930, 64.12
557.0, 0.1930, 64.13
557.5, 0.1930, 64.12
558.0, 0.1930, 64.13
558.5, 0.1930, 64.12
559.0, 0.1929, 64.13
559.5, 0.1929, 64.14
560.0, 0.1929, 64.13
560.5, 0.1928, 64.14
561.0, 0.1928, 64.14
561.5, 0.1927, 64.16
562.0, 0.1927, 64.17
562.5, 0.1927, 64.16
563.0, 0.1927, 64.16
563.5, 0.1927, 64.16
564.0, 0.1927, 64.17
564.5, 0.1926, 64.18
565.0, 0.1926, 64.18
565.5, 0.1926, 64.18
566.0, 0.1926, 64.18
566.5, 0.1925, 64.19
567.0, 0.1925, 64.19
567.5, 0.1925, 64.19
568.0, 0.1925, 64.19
568.5, 0.1926, 64.19
569.0, 0.1924, 64.20
569.5, 0.1925, 64.20
570.0, 0.1925, 64.19
570.5, 0.1925, 64.19
571.0, 0.1924, 64.21
571.5, 0.1924, 64.21
572.0, 0.1923, 64.22
572.5, 0.1924, 64.21
573.0, 0.1924, 64.21
573.5, 0.1924, 64.21
574.0, 0.1923, 64.23
574.5, 0.1923, 64.22
575.0, 0.1923, 64.22
575.5, 0.1922, 64.24
576.0, 0.1923, 64.23
576.5, 0.1921, 64.25
577.0, 0.1922, 64.24
577.5, 0.1921, 64.25
578.0, 0.1922, 64.25
578.5, 0.1913, 64.37
579.0, 0.1913, 64.37
579.5, 0.1913, 64.37
580.0, 0.1915, 64.35
580.5, 0.1914, 64.35
581.0, 0.1914, 64.35
581.5, 0.1914, 64.35
582.0, 0.1915, 64.35
582.5, 0.1916, 64.33
583.0, 0.1916, 64.33
583.5, 0.1917, 64.32
584.0, 0.1917, 64.32
584.5, 0.1917, 64.32
585.0, 0.1917, 64.32
585.5, 0.1918, 64.30
586.0, 0.1919, 64.28
586.5, 0.1920, 64.28
587.0, 0.1919, 64.29
587.5, 0.1918, 64.30
588.0, 0.1918, 64.30
588.5, 0.1918, 64.30
589.0, 0.1920, 64.27
589.5, 0.1918, 64.30
590.0, 0.1917, 64.31
590.5, 0.1917, 64.31
591.0, 0.1919, 64.29
591.5, 0.1918, 64.30
592.0, 0.1918, 64.30
592.5, 0.1918, 64.31
593.0, 0.1917, 64.31
593.5, 0.1917, 64.31
594.0, 0.1917, 64.31
594.5, 0.1917, 64.32
595.0, 0.1916, 64.33
595.5, 0.1916, 64.33
596.0, 0.1918, 64.30
596.5, 0.1917, 64.32
597.0, 0.1916, 64.33
597.5, 0.1915, 64.34
598.0, 0.1916, 64.32
598.5, 0.1917, 64.32
599.0, 0.1916, 64.33
599.5, 0.1916, 64.33
600.0, 0.1915, 64.34
600.5, 0.1915, 64.34
601.0, 0.1917, 64.32
601.5, 0.1916, 64.33
602.0, 0.1916, 64.33
602.5, 0.1915, 64.34
603.0, 0.1914, 64.35
603.5, 0.1915, 64.34
604.0, 0.1914, 64.35
604.5, 0.1914, 64.36
605.0, 0.1914, 64.36
605.5, 0.1914, 64.36
606.0, 0.1915, 64.35
606.5, 0.1915, 64.35
607.0, 0.1913, 64.37
607.5, 0.1914, 64.36
608.0, 0.1914, 64.36
608.5, 0.1913, 64.37
609.0, 0.1913, 64.37
609.5, 0.1913, 64.37
610.0, 0.1913, 64.37
610.5, 0.1913, 64.37
611.0, 0.1913, 64.38
611.5, 0.1912, 64.38
612.0, 0.1912, 64.39
612.5, 0.1912, 64.39
613.0, 0.1912, 64.39
613.5, 0.1912, 64.38
614.0, 0.1912, 64.39
614.5, 0.1912, 64.39
615.0, 0.1912, 64.38
615.5, 0.1912, 64.39
616.0, 0.1912, 64.39
616.5, 0.1911, 64.40
617.0, 0.1911, 64.40
617.5, 0.1911, 64.40
618.0, 0.1911, 64.41
618.5, 0.1911, 64.41
619.0, 0.1911, 64.41
619.5, 0.1911, 64.41
620.0, 0.1911, 64.41
620.5, 0.1910, 64.42
621.0, 0.1910, 64.42
621.5, 0.1910, 64.41
622.0, 0.1910, 64.42
622.5, 0.1910, 64.42
623.0, 0.1909, 64.43
623.5, 0.1910, 64.42
624.0, 0.1909, 64.43
624.5, 0.1910, 64.42
625.0, 0.1909, 64.43
625.5, 0.1909, 64.43
626.0, 0.1909, 64.43
626.5, 0.1908, 64.44
627.0, 0.1910, 64.42
627.5, 0.1909, 64.44
628.0, 0.1909, 64.44
628.5, 0.1908, 64.44
629.0, 0.1908, 64.45
629.5, 0.1907, 64.45
630.0, 0.1908, 64.44
630.5, 0.1908, 64.45
631.0, 0.1907, 64.46
631.5, 0.1907, 64.47
632.0, 0.1906, 64.48
632.5, 0.1905, 64.49
633.0, 0.1906, 64.47
633.5, 0.1905, 64.49
634.0, 0.1905, 64.49
634.5, 0.1905, 64.49
635.0, 0.1905, 64.50
635.5, 0.1905, 64.49
636.0, 0.1905, 64.49
636.5, 0.1905, 64.49
637.0, 0.1903, 64.52
637.5, 0.1905, 64.50
638.0, 0.1904, 64.51
638.5, 0.1904, 64.50
639.0, 0.1904, 64.51
639.5, 0.1904, 64.51
640.0, 0.1904, 64.50
640.5, 0.1904, 64.51
641.0, 0.1904, 64.51
641.5, 0.1903, 64.53
642.0, 0.1903, 64.51
642.5, 0.1904, 64.51
643.0, 0.1903, 64.52
643.5, 0.1903, 64.52
644.0, 0.1903, 64.52
644.5, 0.1903, 64.53
645.0, 0.1904, 64.51
645.5, 0.1903, 64.52
646.0, 0.1903, 64.52
646.5, 0.1902, 64.54
647.0, 0.1902, 64.53
647.5, 0.1902, 64.54
648.0, 0.1902, 64.54
648.5, 0.1902, 64.53
649.0, 0.1902, 64.54
649.5, 0.1902, 64.53
650.0, 0.1903, 64.53
650.5, 0.1902, 64.54
651.0, 0.1901, 64.55
651.5, 0.1902, 64.54
652.0, 0.1901, 64.55
652.5, 0.1901, 64.55
653.0, 0.1901, 64.55
653.5, 0.1902, 64.54
654.0, 0.1900, 64.56
654.5, 0.1900, 64.56
655.0, 0.1901, 64.55
655.5, 0.1900, 64.57
656.0, 0.1900, 64.57
656.5, 0.1900, 64.57
657.0, 0.1900, 64.57
657.5, 0.1900, 64.56
658.0, 0.1899, 64.57
658.5, 0.1898, 64.59
659.0, 0.1899, 64.58
659.5, 0.1899, 64.58
660.0, 0.1899, 64.58
660.5, 0.1899, 64.58
661.0, 0.1899, 64.58
661.5, 0.1899, 64.58
662.0, 0.1898, 64.60
662.5, 0.1898, 64.60
663.0, 0.1897, 64.61
663.5, 0.1898, 64.59
664.0, 0.1898, 64.59
664.5, 0.1898, 64.59
665.0, 0.1897, 64.60
665.5, 0.1898, 64.60
666.0, 0.1896, 64.62
666.5, 0.1897, 64.62
667.0, 0.1896, 64.62
667.5, 0.1897, 64.62
668.0, 0.1897, 64.62
668.5, 0.1896, 64.62
669.0, 0.1897, 64.61
669.5, 0.1896, 64.62
670.0, 0.1897, 64.61
670.5, 0.1897, 64.62
671.0, 0.1895, 64.63
671.5, 0.1896, 64.63
672.0, 0.1896, 64.62
672.5, 0.1895, 64.64
673.0, 0.1894, 64.65
673.5, 0.1895, 64.63
674.0, 0.1896, 64.63
674.5, 0.1896, 64.63
675.0, 0.1895, 64.64
675.5, 0.1895, 64.65
676.0, 0.1894, 64.65
676.5, 0.1895, 64.64
677.0, 0.1893, 64.66
677.5, 0.1894, 64.65
678.0, 0.1893, 64.66
678.5, 0.1894, 64.66
679.0, 0.1893, 64.67
679.5, 0.1894, 64.66
680.0, 0.1893, 64.67
680.5, 0.1893, 64.68
681.0, 0.1892, 64.68
681.5, 0.1892, 64.69
682.0, 0.1892, 64.68
682.5, 0.1892, 64.68
683.0, 0.1892, 64.68
683.5, 0.1893, 64.67
684.0, 0.1892, 64.68
684.5, 0.1892, 64.69
685.0, 0.1891, 64.70
685.5, 0.1891, 64.70
686.0, 0.1891, 64.70
686.5, 0.1890, 64.71
687.0, 0.1890, 64.71
687.5, 0.1890, 64.71
688.0, 0.1889, 64.72
688.5, 0.1890, 64.71
689.0, 0.1889, 64.72
689.5, 0.1890, 64.72
690.0, 0.1889, 64.73
690.5, 0.1889, 64.74
691.0, 0.1888, 64.74
691.5, 0.1889, 64.72
692.0, 0.1888, 64.74
692.5, 0.1889, 64.73
693.0, 0.1888, 64.74
693.5, 0.1888, 64.74
694.0, 0.1888, 64.74
694.5, 0.1888, 64.74
695.0, 0.1887, 64.75
695.5, 0.1887, 64.75
696.0, 0.1888, 64.75
696.5, 0.1888, 64.74
697.0, 0.1887, 64.76
697.5, 0.1888, 64.74
698.0, 0.1887, 64.76
698.5, 0.1887, 64.76
699.0, 0.1887, 64.76
699.5, 0.1887, 64.76
700.0, 0.1886, 64.77
700.5, 0.1886, 64.77
701.0, 0.1886, 64.77
701.5, 0.1886, 64.77
702.0, 0.1886, 64.77
702.5, 0.1886, 64.78
703.0, 0.1886, 64.77
703.5, 0.1886, 64.77
704.0, 0.1886, 64.77
704.5, 0.1886, 64.77
705.0, 0.1886, 64.78
705.5, 0.1886, 64.78
706.0, 0.1885, 64.79
706.5, 0.1885, 64.79
707.0, 0.1885, 64.78
707.5, 0.1885, 64.79
708.0, 0.1885, 64.80
708.5, 0.1886, 64.78
709.0, 0.1884, 64.81
709.5, 0.1884, 64.80
710.0, 0.1884, 64.80
710.5, 0.1877, 64.90
711.0, 0.1878, 64.90
711.5, 0.1877, 64.90
712.0, 0.1877, 64.91
712.5, 0.1877, 64.91
713.0, 0.1877, 64.90
713.5, 0.1877, 64.90
714.0, 0.1877, 64.90
714.5, 0.1877, 64.91
715.0, 0.1877, 64.90
715.5, 0.1877, 64.91
716.0, 0.1877, 64.91
716.5, 0.1876, 64.92
717.0, 0.1877, 64.90
717.5, 0.1876, 64.92
718.0, 0.1877, 64.91
718.5, 0.1876, 64.92
719.0, 0.1877, 64.92
719.5, 0.1877, 64.91
720.0, 0.1876, 64.92
720.5, 0.1877, 64.91
721.0, 0.1876, 64.92
721.5, 0.1877, 64.91
722.0, 0.1877, 64.91
722.5, 0.1877, 64.91
723.0, 0.1877, 64.91
723.5, 0.1877, 64.91
724.0, 0.1876, 64.92
724.5, 0.1877, 64.91
725.0, 0.1877, 64.91
725.5, 0.1877, 64.91
726.0, 0.1877, 64.91
726.5, 0.1877, 64.90
727.0, 0.1877, 64.91
727.5, 0.1878, 64.90
728.0, 0.1877, 64.90
728.5, 0.1877, 64.90
729.0, 0.1878, 64.90
729.5, 0.1878, 64.90
730.0, 0.1878, 64.89
730.5, 0.1878, 64.90
731.0, 0.1879, 64.88
731.5, 0.1878, 64.89
732.0, 0.1879, 64.87
732.5, 0.1879, 64.88
733.0, 0.1879, 64.87
733.5, 0.1879, 64.88
734.0, 0.1880, 64.87
734.5, 0.1879, 64.87
735.0, 0.1880, 64.86
735.5, 0.1880, 64.86
736.0, 0.1880, 64.87
736.5, 0.1880, 64.87
737.0, 0.1880, 64.86
737.5, 0.1881, 64.85
738.0, 0.1880, 64.86
738.5, 0.1880, 64.87
739.0, 0.1879, 64.88
739.5, 0.1879, 64.88
740.0, 0.1879, 64.88
740.5, 0.1879, 64.88
741.0, 0.1879, 64.88
741.5, 0.1879, 64.88
742.0, 0.1879, 64.87
742.5, 0.1879, 64.88
743.0, 0.1878, 64.89
743.5, 0.1878, 64.89
744.0, 0.1878, 64.89
744.5, 0.1878, 64.89
745.0, 0.1878, 64.89
745.5, 0.1878, 64.89
746.0, 0.1879, 64.88
746.5, 0.1878, 64.90
747.0, 0.1878, 64.90
747.5, 0.1877, 64.90
748.0, 0.1877, 64.91
748.5, 0.1877, 64.92
749.0, 0.1876, 64.92
749.5, 0.1876, 64.92
750.0, 0.1876, 64.93
750.5, 0.1876, 64.92
751.0, 0.1876, 64.92
751.5, 0.1876, 64.92
752.0, 0.1875, 64.93
752.5, 0.1876, 64.93
753.0, 0.1875, 64.94
753.5, 0.1875, 64.93
754.0, 0.1875, 64.93
754.5, 0.1875, 64.94
755.0, 0.1875, 64.94
755.5, 0.1875, 64.94
756.0, 0.1875, 64.94
756.5, 0.1875, 64.94
757.0, 0.1874, 64.95
757.5, 0.1874, 64.95
758.0, 0.1873, 64.97
758.5, 0.1873, 64.96
759.0, 0.1873, 64.97
759.5, 0.1874, 64.95
760.0, 0.1873, 64.97
760.5, 0.1873, 64.97
761.0, 0.1873, 64.96
761.5, 0.1873, 64.97
762.0, 0.1872, 64.98
762.5, 0.1872, 64.98
763.0, 0.1872, 64.98
763.5, 0.1871, 64.99
764.0, 0.1872, 64.99
764.5, 0.1871, 65.00
765.0, 0.1871, 64.99
765.5, 0.1870, 65.01
766.0, 0.1871, 65.00
766.5, 0.1870, 65.01
767.0, 0.1870, 65.01
767.5, 0.1869, 65.03
768.0, 0.1870, 65.01
768.5, 0.1870, 65.02
769.0, 0.1870, 65.02
769.5, 0.1870, 65.02
770.0, 0.1869, 65.03
770.5, 0.1869, 65.03
771.0, 0.1869, 65.03
771.5, 0.1869, 65.03
772.0, 0.1867, 65.05
772.5, 0.1867, 65.05
773.0, 0.1867, 65.06
773.5, 0.1867, 65.05
774.0, 0.1867, 65.06
774.5, 0.1867, 65.06
775.0, 0.1866, 65.08
775.5, 0.1865, 65.09
776.0, 0.1865, 65.08
776.5, 0.1865, 65.09
777.0, 0.1865, 65.09
777.5, 0.1864, 65.11
778.0, 0.1865, 65.09
778.5, 0.1864, 65.10
779.0, 0.1865, 65.09
779.5, 0.1864, 65.10
780.0, 0.1864, 65.11
780.5, 0.1863, 65.11
781.0, 0.1864, 65.11
781.5, 0.1863, 65.11
782.0, 0.1862, 65.13
782.5, 0.1861, 65.15
783.0, 0.1861, 65.14
783.5, 0.1862, 65.14
784.0, 0.1861, 65.15
784.5, 0.1861, 65.16
785.0, 0.1859, 65.17
785.5, 0.1860, 65.16
786.0, 0.1859, 65.18
786.5, 0.1860, 65.17
787.0, 0.1858, 65.19
787.5, 0.1859, 65.18
788.0, 0.1858, 65.19
788.5, 0.1858, 65.19
789.0, 0.1858, 65.19
789.5, 0.1857, 65.20
790.0, 0.1857, 65.21
790.5, 0.1856, 65.22
791.0, 0.1858, 65.20
791.5, 0.1856, 65.22
792.0, 0.1857, 65.21
792.5, 0.1855, 65.24
793.0, 0.1857, 65.21
793.5, 0.1855, 65.23
794.0, 0.1856, 65.23
794.5, 0.1855, 65.24
795.0, 0.1855, 65.23
795.5, 0.1855, 65.24
796.0, 0.1855, 65.24
796.5, 0.1855, 65.24
797.0, 0.1853, 65.26
797.5, 0.1854, 65.25
798.0, 0.1853, 65.26
798.5, 0.1854, 65.25
799.0, 0.1852, 65.28
799.5, 0.1852, 65.28
800.0, 0.1852, 65.28
800.5, 0.1845, 65.40
801.0, 0.1844, 65.40
801.5, 0.1844, 65.41
802.0, 0.1844, 65.41
802.5, 0.1843, 65.41
803.0, 0.1844, 65.40
803.5, 0.1845, 65.39
804.0, 0.1843, 65.41
804.5, 0.1844, 65.41
805.0, 0.1843, 65.41
805.5, 0.1844, 65.40
806.0, 0.1843, 65.41
806.5, 0.1843, 65.42
807.0, 0.1843, 65.42
807.5, 0.1844, 65.41
808.0, 0.1844, 65.40
808.5, 0.1844, 65.40
809.0, 0.1844, 65.40
809.5, 0.1844, 65.40
810.0, 0.1844, 65.41
810.5, 0.1843, 65.41
811.0, 0.1844, 65.41
811.5, 0.1842, 65.43
812.0, 0.1842, 65.43
812.5, 0.1842, 65.44
813.0, 0.1843, 65.42
813.5, 0.1842, 65.43
814.0, 0.1843, 65.42
814.5, 0.1842, 65.44
815.0, 0.1843, 65.43
815.5, 0.1841, 65.45
816.0, 0.1842, 65.44
816.5, 0.1841, 65.45
817.0, 0.1841, 65.44
817.5, 0.1842, 65.44
818.0, 0.1841, 65.45
818.5, 0.1841, 65.44
819.0, 0.1841, 65.45
819.5, 0.1841, 65.45
820.0, 0.1840, 65.46
820.5, 0.1841, 65.46
821.0, 0.1840, 65.46
821.5, 0.1841, 65.45
822.0, 0.1840, 65.46
822.5, 0.1840, 65.46
823.0, 0.1839, 65.47
823.5, 0.1839, 65.47
824.0, 0.1840, 65.46
824.5, 0.1839, 65.48
825.0, 0.1840, 65.46
825.5, 0.1839, 65.48
826.0, 0.1840, 65.46
826.5, 0.1839, 65.48
827.0, 0.1840, 65.46
827.5, 0.1840, 65.47
828.0, 0.1840, 65.46
828.5, 0.1840, 65.47
829.0, 0.1840, 65.46
829.5, 0.1840, 65.46
830.0, 0.1840, 65.47
830.5, 0.1839, 65.47
831.0, 0.1839, 65.47
831.5, 0.1840, 65.46
832.0, 0.1839, 65.48
832.5, 0.1840, 65.46
833.0, 0.1840, 65.47
833.5, 0.1841, 65.45
834.0, 0.1839, 65.47
834.5, 0.1841, 65.44
835.0, 0.1840, 65.46
835.5, 0.1840, 65.46
836.0, 0.1840, 65.46
836.5, 0.1840, 65.47
837.0, 0.1840, 65.46
837.5, 0.1839, 65.48
838.0, 0.1840, 65.46
838.5, 0.1839, 65.47
839.0, 0.1839, 65.48
839.5, 0.1839, 65.49
840.0, 0.1839, 65.48
840.5, 0.1838, 65.50
841.0, 0.1838, 65.49
841.5, 0.1838, 65.49
842.0, 0.1838, 65.50
842.5, 0.1838, 65.50
843.0, 0.1837, 65.50
843.5, 0.1837, 65.50
844.0, 0.1838, 65.50
844.5, 0.1837, 65.51
845.0, 0.1835, 65.53
845.5, 0.1835, 65.53
846.0, 0.1835, 65.54
846.5, 0.1835, 65.53
847.0, 0.1835, 65.53
847.5, 0.1836, 65.53
848.0, 0.1836, 65.53
848.5, 0.1834, 65.55
849.0, 0.1835, 65.54
849.5, 0.1834, 65.55
850.0, 0.1834, 65.55
850.5, 0.1832, 65.58
851.0, 0.1833, 65.57
851.5, 0.1833, 65.57
852.0, 0.1833, 65.57
852.5, 0.1832, 65.59
853.0, 0.1832, 65.59
853.5, 0.1832, 65.59
854.0, 0.1832, 65.59
854.5, 0.1831, 65.60
855.0, 0.1831, 65.61
855.5, 0.1830, 65.61
856.0, 0.1830, 65.61
856.5, 0.1830, 65.62
857.0, 0.1829, 65.63
857.5, 0.1829, 65.63
858.0, 0.1829, 65.63
858.5, 0.1830, 65.62
859.0, 0.1829, 65.63
859.5, 0.1829, 65.63
860.0, 0.1828, 65.65
860.5, 0.1829, 65.63
861.0, 0.1828, 65.64
861.5, 0.1828, 65.64
862.0, 0.1827, 65.66
862.5, 0.1828, 65.65
863.0, 0.1828, 65.65
863.5, 0.1827, 65.66
864.0, 0.1827, 65.67
864.5, 0.1826, 65.67
865.0, 0.1827, 65.65
865.5, 0.1826, 65.67
866.0, 0.1826, 65.67
866.5, 0.1827, 65.67
867.0, 0.1827, 65.67
867.5, 0.1826, 65.68
868.0, 0.1826, 65.67
868.5, 0.1826, 65.68
869.0, 0.1825, 65.69
869.5, 0.1825, 65.69
870.0, 0.1824, 65.70
870.5, 0.1825, 65.69
871.0, 0.1825, 65.70
871.5, 0.1824, 65.70
872.0, 0.1824, 65.70
872.5, 0.1824, 65.70
873.0, 0.1824, 65.70
873.5, 0.1824, 65.70
874.0, 0.1824, 65.70
874.5, 0.1824, 65.71
875.0, 0.1824, 65.71
875.5, 0.1824, 65.71
876.0, 0.1823, 65.71
876.5, 0.1824, 65.71
877.0, 0.1823, 65.72
877.5, 0.1823, 65.72
878.0, 0.1823, 65.72
878.5, 0.1822, 65.73
879.0, 0.1822, 65.73
879.5, 0.1822, 65.74
880.0, 0.1822, 65.74
880.5, 0.1821, 65.74
881.0, 0.1822, 65.74
881.5, 0.1821, 65.75
882.0, 0.1821, 65.75
882.5, 0.1821, 65.74
883.0, 0.1820, 65.76
883.5, 0.1820, 65.77
884.0, 0.1820, 65.76
884.5, 0.1820, 65.77
885.0, 0.1820, 65.76
885.5, 0.1820, 65.77
886.0, 0.1820, 65.77
886.5, 0.1820, 65.77
887.0, 0.1819, 65.77
887.5, 0.1819, 65.77
888.0, 0.1819, 65.78
888.5, 0.1819, 65.78
889.0, 0.1819, 65.78
889.5, 0.1819, 65.78
890.0, 0.1819, 65.79
890.5, 0.1819, 65.79
891.0, 0.1819, 65.79
891.5, 0.1819, 65.78
892.0, 0.1818, 65.80
892.5, 0.1818, 65.80
893.0, 0.1818, 65.80
893.5, 0.1818, 65.80
894.0, 0.1818, 65.79
894.5, 0.1818, 65.80
895.0, 0.1817, 65.81
895.5, 0.1817, 65.81
896.0, 0.1817, 65.81
896.5, 0.1817, 65.82
897.0, 0.1817, 65.81
897.5, 0.1817, 65.82
898.0, 0.1817, 65.82
898.5, 0.1816, 65.83
899.0, 0.1816, 65.82
899.5, 0.1816, 65.83
900.0, 0.1816, 65.82
900.5, 0.1816, 65.83
901.0, 0.1815, 65.84
901.5, 0.1815, 65.84
902.0, 0.1815, 65.83
902.5, 0.1816, 65.83
903.0, 0.1815, 65.84
903.5, 0.1815, 65.84
904.0, 0.1815, 65.85
904.5, 0.1815, 65.84
905.0, 0.1815, 65.85
905.5, 0.1815, 65.84
906.0, 0.1814, 65.86
906.5, 0.1815, 65.84
907.0, 0.1814, 65.86
907.5, 0.1814, 65.86
908.0, 0.1813, 65.87
908.5, 0.1813, 65.86
909.0, 0.1813, 65.87
909.5, 0.1813, 65.87
910.0, 0.1813, 65.88
910.5, 0.1813, 65.87
911.0, 0.1813, 65.87
911.5, 0.1812, 65.89
912.0, 0.1812, 65.88
912.5, 0.1813, 65.88
913.0, 0.1813, 65.88
913.5, 0.1813, 65.88
914.0, 0.1813, 65.87
914.5, 0.1813, 65.88
915.0, 0.1813, 65.87
915.5, 0.1813, 65.87
916.0, 0.1814, 65.86
916.5, 0.1813, 65.88
917.0, 0.1812, 65.88
917.5, 0.1814, 65.86
918.0, 0.1813, 65.87
918.5, 0.1815, 65.85
919.0, 0.1814, 65.85
919.5, 0.1815, 65.85
920.0, 0.1814, 65.86
920.5, 0.1815, 65.85
921.0, 0.1814, 65.85
921.5, 0.1815, 65.85
922.0, 0.1815, 65.85
922.5, 0.1815, 65.85
923.0, 0.1815, 65.84
923.5, 0.1816, 65.82
924.0, 0.1816, 65.83
924.5, 0.1816, 65.83
925.0, 0.1817, 65.81
925.5, 0.1817, 65.81
926.0, 0.1818, 65.79
926.5, 0.1818, 65.80
927.0, 0.1819, 65.78
927.5, 0.1820, 65.77
928.0, 0.1820, 65.77
928.5, 0.1821, 65.75
929.0, 0.1821, 65.75
929.5, 0.1821, 65.74
930.0, 0.1823, 65.72
930.5, 0.1824, 65.71
931.0, 0.1825, 65.69
931.5, 0.1825, 65.68
932.0, 0.1826, 65.68
932.5, 0.1827, 65.66
933.0, 0.1828, 65.65
933.5, 0.1829, 65.63
934.0, 0.1830, 65.62
934.5, 0.1831, 65.60
935.0, 0.1832, 65.59
935.5, 0.1834, 65.56
936.0, 0.1834, 65.55
936.5, 0.1835, 65.54
937.0, 0.1837, 65.50
937.5, 0.1839, 65.48
938.0, 0.1841, 65.45
938.5, 0.1841, 65.45
939.0, 0.1842, 65.43
939.5, 0.1845, 65.39
940.0, 0.1846, 65.37
940.5, 0.1848, 65.35
941.0, 0.1849, 65.33
941.5, 0.1851, 65.29
942.0, 0.1853, 65.28
942.5, 0.1855, 65.24
943.0, 0.1856, 65.22
943.5, 0.1857, 65.20
944.0, 0.1858, 65.19
944.5, 0.1861, 65.15
945.0, 0.1863, 65.11
945.5, 0.1864, 65.10
946.0, 0.1866, 65.08
946.5, 0.1868, 65.04
947.0, 0.1871, 65.00
947.5, 0.1873, 64.96
948.0, 0.1875, 64.94
948.5, 0.1877, 64.91
949.0, 0.1879, 64.87
949.5, 0.1882, 64.83
950.0, 0.1886, 64.78
950.5, 0.1888, 64.75
951.0, 0.1890, 64.71
951.5, 0.1894, 64.65
952.0, 0.1896, 64.62
952.5, 0.1902, 64.54
953.0, 0.1903, 64.51
953.5, 0.1907, 64.46
954.0, 0.1910, 64.42
954.5, 0.1914, 64.36
955.0, 0.1917, 64.31
955.5, 0.1920, 64.27
956.0, 0.1923, 64.22
956.5, 0.1924, 64.20
957.0, 0.1928, 64.14
957.5, 0.1930, 64.12
958.0, 0.1932, 64.09
958.5, 0.1933, 64.08
959.0, 0.1936, 64.03
959.5, 0.1937, 64.02
960.0, 0.1940, 63.97
960.5, 0.1940, 63.98
961.0, 0.1942, 63.94
961.5, 0.1942, 63.94
962.0, 0.1944, 63.91
962.5, 0.1944, 63.92
963.0, 0.1944, 63.92
963.5, 0.1945, 63.89
964.0, 0.1945, 63.91
964.5, 0.1947, 63.86
965.0, 0.1945, 63.90
965.5, 0.1947, 63.87
966.0, 0.1947, 63.87
966.5, 0.1947, 63.86
967.0, 0.1948, 63.86
967.5, 0.1948, 63.86
968.0, 0.1948, 63.85
968.5, 0.1947, 63.87
969.0, 0.1947, 63.87
969.5, 0.1949, 63.84
970.0, 0.1947, 63.87
970.5, 0.1947, 63.87
971.0, 0.1947, 63.88
971.5, 0.1940, 63.97
972.0, 0.1941, 63.96
972.5, 0.1940, 63.98
973.0, 0.1941, 63.96
973.5, 0.1940, 63.97
974.0, 0.1941, 63.96
974.5, 0.1942, 63.95
975.0, 0.1940, 63.97
975.5, 0.1942, 63.95
976.0, 0.1941, 63.96
976.5, 0.1941, 63.96
977.0, 0.1941, 63.96
977.5, 0.1940, 63.97
978.0, 0.1940, 63.98
978.5, 0.1938, 64.00
979.0, 0.1938, 64.00
979.5, 0.1939, 63.99
980.0, 0.1938, 64.00
980.5, 0.1936, 64.03
981.0, 0.1936, 64.04
981.5, 0.1936, 64.03
982.0, 0.1936, 64.04
982.5, 0.1935, 64.05
983.0, 0.1934, 64.06
983.5, 0.1932, 64.09
984.0, 0.1933, 64.07
984.5, 0.1932, 64.09
985.0, 0.1931, 64.10
985.5, 0.1930, 64.13
986.0, 0.1929, 64.14
986.5, 0.1929, 64.14
987.0, 0.1927, 64.17
987.5, 0.1926, 64.18
988.0, 0.1924, 64.21
988.5, 0.1924, 64.21
989.0, 0.1924, 64.21
989.5, 0.1922, 64.24
990.0, 0.1921, 64.26
990.5, 0.1918, 64.29
991.0, 0.1918, 64.30
991.5, 0.1917, 64.31
992.0, 0.1915, 64.34
992.5, 0.1914, 64.36
993.0, 0.1911, 64.40
993.5, 0.1912, 64.39
994.0, 0.1910, 64.41
994.5, 0.1909, 64.44
995.0, 0.1907, 64.47
995.5, 0.1906, 64.48
996.0, 0.1904, 64.50
996.5, 0.1904, 64.51
997.0, 0.1902, 64.54
997.5, 0.1901, 64.55
998.0, 0.1899, 64.59
998.5, 0.1898, 64.59
999.0, 0.1897, 64.61
999.5, 0.1896, 64.63
1000.0, 0.1893, 64.67
1000.5, 0.1891, 64.70
1001.0, 0.1890, 64.71
1001.5, 0.1888, 64.74
1002.0, 0.1887, 64.76
1002.5, 0.1883, 64.81
1003.0, 0.1884, 64.81
1003.5, 0.1883, 64.82
1004.0, 0.1881, 64.84
1004.5, 0.1878, 64.89
1005.0, 0.1877, 64.90
1005.5, 0.1875, 64.94
1006.0, 0.1874, 64.95
1006.5, 0.1873, 64.96
1007.0, 0.1871, 64.99
1007.5, 0.1870, 65.02
1008.0, 0.1868, 65.05
1008.5, 0.1867, 65.05
1009.0, 0.1866, 65.08
1009.5, 0.1865, 65.09
1010.0, 0.1862, 65.13
1010.5, 0.1860, 65.16
1011.0, 0.1860, 65.17
1011.5, 0.1857, 65.21
1012.0, 0.1856, 65.22
1012.5, 0.1853, 65.27
1013.0, 0.1853, 65.27
1013.5, 0.1850, 65.31
1014.0, 0.1850, 65.32
1014.5, 0.1845, 65.38
1015.0, 0.1844, 65.40
1015.5, 0.1836, 65.52
1016.0, 0.1836, 65.52
1016.5, 0.1835, 65.54
1017.0, 0.1833, 65.57
1017.5, 0.1831, 65.60
1018.0, 0.1830, 65.61
1018.5, 0.1829, 65.62
1019.0, 0.1828, 65.64
1019.5, 0.1827, 65.66
1020.0, 0.1824, 65.70
1020.5, 0.1825, 65.69
1021.0, 0.1824, 65.71
1021.5, 0.1822, 65.74
1022.0, 0.1821, 65.75
1022.5, 0.1820, 65.77
1023.0, 0.1819, 65.79
1023.5, 0.1817, 65.81
1024.0, 0.1816, 65.83
1024.5, 0.1814, 65.85
1025.0, 0.1812, 65.89
1025.5, 0.1810, 65.91
1026.0, 0.1811, 65.91
1026.5, 0.1809, 65.94
1027.0, 0.1806, 65.98
1027.5, 0.1804, 66.01
1028.0, 0.1803, 66.02
1028.5, 0.1803, 66.02
1029.0, 0.1801, 66.06
1029.5, 0.1800, 66.06
1030.0, 0.1797, 66.12
1030.5, 0.1797, 66.12
1031.0, 0.1795, 66.14
1031.5, 0.1794, 66.17
1032.0, 0.1793, 66.18
1032.5, 0.1790, 66.22
1033.0, 0.1791, 66.21
1033.5, 0.1789, 66.24
1034.0, 0.1789, 66.24
1034.5, 0.1786, 66.28
1035.0, 0.1784, 66.31
1035.5, 0.1784, 66.31
1036.0, 0.1783, 66.32
1036.5, 0.1780, 66.37
1037.0, 0.1779, 66.39
1037.5, 0.1777, 66.42
1038.0, 0.1778, 66.41
1038.5, 0.1776, 66.44
1039.0, 0.1773, 66.48
1039.5, 0.1771, 66.50
1040.0, 0.1770, 66.53
1040.5, 0.1771, 66.52
1041.0, 0.1768, 66.56
1041.5, 0.1768, 66.56
1042.0, 0.1764, 66.62
1042.5, 0.1766, 66.59
1043.0, 0.1764, 66.62
1043.5, 0.1765, 66.61
1044.0, 0.1762, 66.66
1044.5, 0.1761, 66.67
1045.0, 0.1761, 66.67
1045.5, 0.1761, 66.66
1046.0, 0.1759, 66.70
1046.5, 0.1749, 66.85
1047.0, 0.1747, 66.88
1047.5, 0.1748, 66.86
1048.0, 0.1748, 66.87
1048.5, 0.1747, 66.88
1049.0, 0.1747, 66.88
1049.5, 0.1746, 66.89
1050.0, 0.1747, 66.88
1050.5, 0.1747, 66.88
1051.0, 0.1746, 66.89
1051.5, 0.1745, 66.91
1052.0, 0.1743, 66.95
1052.5, 0.1744, 66.92
1053.0, 0.1744, 66.93
1053.5, 0.1744, 66.92
1054.0, 0.1742, 66.96
1054.5, 0.1741, 66.97
1055.0, 0.1742, 66.96
1055.5, 0.1740, 66.99
1056.0, 0.1742, 66.96
1056.5, 0.1737, 67.04
1057.0, 0.1739, 67.01
1057.5, 0.1737, 67.03
1058.0, 0.1736, 67.04
1058.5, 0.1736, 67.05
1059.0, 0.1734, 67.07
1059.5, 0.1734, 67.09
1060.0, 0.1734, 67.08
1060.5, 0.1732, 67.11
1061.0, 0.1733, 67.10
1061.5, 0.1729, 67.15
1062.0, 0.1730, 67.14
1062.5, 0.1730, 67.14
1063.0, 0.1729, 67.16
1063.5, 0.1731, 67.13
1064.0, 0.1727, 67.19
1064.5, 0.1731, 67.13
1065.0, 0.1730, 67.14
1065.5, 0.1731, 67.13
1066.0, 0.1729, 67.16
1066.5, 0.1727, 67.19
1067.0, 0.1729, 67.16
1067.5, 0.1728, 67.17
1068.0, 0.1730, 67.15
1068.5, 0.1728, 67.17
1069.0, 0.1728, 67.18
1069.5, 0.1728, 67.18
1070.0, 0.1728, 67.17
1070.5, 0.1726, 67.20
1071.0, 0.1725, 67.22
1071.5, 0.1725, 67.22
1072.0, 0.1726, 67.21
1072.5, 0.1717, 67.34
1073.0, 0.1718, 67.33
1073.5, 0.1718, 67.33
1074.0, 0.1717, 67.34
1074.5, 0.1719, 67.32
1075.0, 0.1719, 67.32
1075.5, 0.1719, 67.31
1076.0, 0.1718, 67.33
1076.5, 0.1718, 67.33
1077.0, 0.1719, 67.32
1077.5, 0.1719, 67.31
1078.0, 0.1720, 67.30
1078.5, 0.1718, 67.33
1079.0, 0.1720, 67.29
1079.5, 0.1721, 67.29
1080.0, 0.1721, 67.27
1080.5, 0.1720, 67.30
1081.0, 0.1720, 67.30
1081.5, 0.1722, 67.27
1082.0, 0.1721, 67.29
1082.5, 0.1723, 67.25
1083.0, 0.1722, 67.27
1083.5, 0.1724, 67.24
1084.0, 0.1724, 67.23
1084.5, 0.1726, 67.20
1085.0, 0.1728, 67.18
1085.5, 0.1729, 67.16
1086.0, 0.1728, 67.17
1086.5, 0.1728, 67.18
1087.0, 0.1730, 67.15
1087.5, 0.1728, 67.17
1088.0, 0.1726, 67.20
1088.5, 0.1726, 67.21
1089.0, 0.1727, 67.19
1089.5, 0.1728, 67.18
1090.0, 0.1728, 67.17
1090.5, 0.1725, 67.22
1091.0, 0.1725, 67.21
1091.5, 0.1726, 67.20
1092.0, 0.1727, 67.18
1092.5, 0.1728, 67.17
1093.0, 0.1728, 67.17
1093.5, 0.1729, 67.16
1094.0, 0.1729, 67.15
1094.5, 0.1731, 67.12
1095.0, 0.1731, 67.12
1095.5, 0.1733, 67.10
1096.0, 0.1736, 67.05
1096.5, 0.1744, 66.93
1097.0, 0.1743, 66.94
1097.5, 0.1762, 66.65
1098.0, 0.1773, 66.49
1098.5, 0.1777, 66.42
1099.0, 0.1782, 66.35
1099.5, 0.1779, 66.39
1100.0, 0.1781, 66.36
