Sample Name, Sample-3
Time, March 10 15:38:12 2023
Operator, Smith
Lamp, 0
Slit,0.0
Scan From, 1100.0nm
Scan To, 190.0nm
Scan Step, 0.5nm
Sample Filter, 5
memo, 
WL(nm), Abs, T%
190.0, 1.5492, 2.82
190.5, 1.5764, 2.65
191.0, 1.6119, 2.44
191.5, 1.6302, 2.34
192.0, 1.6589, 2.19
192.5, 1.6611, 2.18
193.0, 1.6669, 2.15
193.5, 1.6806, 2.09
194.0, 1.6890, 2.05
194.5, 1.7002, 1.99
195.0, 1.7005, 1.99
195.5, 1.7055, 1.97
196.0, 1.7081, 1.96
196.5, 1.6973, 2.01
197.0, 1.6876, 2.05
197.5, 1.6690, 2.14
198.0, 1.6527, 2.23
198.5, 1.6315, 2.34
199.0, 1.6132, 2.44
199.5, 1.5902, 2.57
200.0, 1.5631, 2.73
200.5, 1.5404, 2.88
201.0, 1.5147, 3.06
201.5, 1.4845, 3.28
202.0, 1.4539, 3.52
202.5, 1.4169, 3.83
203.0, 1.3816, 4.15
203.5, 1.3473, 4.49
204.0, 1.3141, 4.85
204.5, 1.2820, 5.22
205.0, 1.2493, 5.63
205.5, 1.2196, 6.03
206.0, 1.1884, 6.48
206.5, 1.1579, 6.95
207.0, 1.1265, 7.47
207.5, 1.0968, 8.00
208.0, 1.0673, 8.57
208.5, 1.0402, 9.12
209.0, 1.0145, 9.67
209.5, 0.9903, 10.23
210.0, 0.9659, 10.82
210.5, 0.9440, 11.38
211.0, 0.9228, 11.95
211.5, 0.9023, 12.52
212.0, 0.8819, 13.13
212.5, 0.8626, 13.72
213.0, 0.8442, 14.32
213.5, 0.8262, 14.92
214.0, 0.8089, 15.53
214.5, 0.7928, 16.12
215.0, 0.7767, 16.72
215.5, 0.7614, 17.32
216.0, 0.7476, 17.88
216.5, 0.7337, 18.46
217.0, 0.7207, 19.03
217.5, 0.7072, 19.62
218.0, 0.6948, 20.19
218.5, 0.6829, 20.75
219.0, 0.6711, 21.33
219.5, 0.6599, 21.88
220.0, 0.6484, 22.47
220.5, 0.6380, 23.02
221.0, 0.6280, 23.55
221.5, 0.6176, 24.12
222.0, 0.6073, 24.70
222.5, 0.5975, 25.27
223.0, 0.5878, 25.83
223.5, 0.5787, 26.38
224.0, 0.5695, 26.95
224.5, 0.5602, 27.53
225.0, 0.5511, 28.11
225.5, 0.5420, 28.71
226.0, 0.5333, 29.29
226.5, 0.5242, 29.91
227.0, 0.5151, 30.54
227.5, 0.5060, 31.19
228.0, 0.4968, 31.86
228.5, 0.4878, 32.52
229.0, 0.4788, 33.20
229.5, 0.4695, 33.93
230.0, 0.4599, 34.68
230.5, 0.4510, 35.40
231.0, 0.4414, 36.19
231.5, 0.4318, 37.00
232.0, 0.4220, 37.84
232.5, 0.4124, 38.69
233.0, 0.4029, 39.55
233.5, 0.3939, 40.38
234.0, 0.3847, 41.24
234.5, 0.3758, 42.09
235.0, 0.3674, 42.92
235.5, 0.3593, 43.72
236.0, 0.3514, 44.53
236.5, 0.3437, 45.32
237.0, 0.3362, 46.12
237.5, 0.3289, 46.89
238.0, 0.3221, 47.63
238.5, 0.3157, 48.34
239.0, 0.3097, 49.02
239.5, 0.3040, 49.66
240.0, 0.2987, 50.27
240.5, 0.2939, 50.82
241.0, 0.2892, 51.38
241.5, 0.2849, 51.89
242.0, 0.2808, 52.39
242.5, 0.2767, 52.88
243.0, 0.2731, 53.32
243.5, 0.2695, 53.76
244.0, 0.2663, 54.17
244.5, 0.2632, 54.55
245.0, 0.2602, 54.92
245.5, 0.2575, 55.28
246.0, 0.2550, 55.60
246.5, 0.2525, 55.91
247.0, 0.2502, 56.21
247.5, 0.2479, 56.50
248.0, 0.2459, 56.76
248.5, 0.2439, 57.03
249.0, 0.2420, 57.28
249.5, 0.2402, 57.52
250.0, 0.2385, 57.74
250.5, 0.2369, 57.96
251.0, 0.2352, 58.18
251.5, 0.2338, 58.37
252.0, 0.2324, 58.56
252.5, 0.2310, 58.75
253.0, 0.2297, 58.92
253.5, 0.2283, 59.12
254.0, 0.2272, 59.26
254.5, 0.2252, 59.54
255.0, 0.2242, 59.67
255.5, 0.2232, 59.82
256.0, 0.2223, 59.94
256.5, 0.2213, 60.07
257.0, 0.2205, 60.18
257.5, 0.2197, 60.30
258.0, 0.2188, 60.42
258.5, 0.2180, 60.53
259.0, 0.2173, 60.63
259.5, 0.2166, 60.73
260.0, 0.2161, 60.81
260.5, 0.2153, 60.91
261.0, 0.2147, 60.99
261.5, 0.2140, 61.09
262.0, 0.2135, 61.17
262.5, 0.2128, 61.26
263.0, 0.2123, 61.33
263.5, 0.2117, 61.41
264.0, 0.2113, 61.47
264.5, 0.2109, 61.53
265.0, 0.2105, 61.60
265.5, 0.2101, 61.65
266.0, 0.2097, 61.70
266.5, 0.2093, 61.76
267.0, 0.2089, 61.82
267.5, 0.2085, 61.87
268.0, 0.2080, 61.94
268.5, 0.2076, 62.00
269.0, 0.2074, 62.03
269.5, 0.2071, 62.07
270.0, 0.2067, 62.13
270.5, 0.2064, 62.17
271.0, 0.2060, 62.23
271.5, 0.2058, 62.26
272.0, 0.2055, 62.30
272.5, 0.2051, 62.36
273.0, 0.2047, 62.42
273.5, 0.2046, 62.44
274.0, 0.2043, 62.48
274.5, 0.2038, 62.54
275.0, 0.2036, 62.57
275.5, 0.2033, 62.62
276.0, 0.2028, 62.69
276.5, 0.2025, 62.74
277.0, 0.2021, 62.78
277.5, 0.2017, 62.85
278.0, 0.2012, 62.92
278.5, 0.2007, 62.99
279.0, 0.2003, 63.05
279.5, 0.1998, 63.12
280.0, 0.1994, 63.19
280.5, 0.1988, 63.27
281.0, 0.1981, 63.37
281.5, 0.1975, 63.45
282.0, 0.1971, 63.52
282.5, 0.1963, 63.64
283.0, 0.1957, 63.73
283.5, 0.1949, 63.85
284.0, 0.1943, 63.93
284.5, 0.1935, 64.05
285.0, 0.1927, 64.17
285.5, 0.1916, 64.32
286.0, 0.1906, 64.48
286.5, 0.1896, 64.63
287.0, 0.1885, 64.80
287.5, 0.1874, 64.96
288.0, 0.1863, 65.12
288.5, 0.1852, 65.28
289.0, 0.1844, 65.40
289.5, 0.1834, 65.56
290.0, 0.1824, 65.70
290.5, 0.1814, 65.86
291.0, 0.1803, 66.02
291.5, 0.1791, 66.20
292.0, 0.1782, 66.35
292.5, 0.1771, 66.51
293.0, 0.1761, 66.67
293.5, 0.1750, 66.83
294.0, 0.1741, 66.97
294.5, 0.1732, 67.11
295.0, 0.1722, 67.27
295.5, 0.1713, 67.41
296.0, 0.1702, 67.58
296.5, 0.1693, 67.71
297.0, 0.1684, 67.86
297.5, 0.1675, 67.99
298.0, 0.1669, 68.09
298.5, 0.1661, 68.23
299.0, 0.1654, 68.33
299.5, 0.1647, 68.43
300.0, 0.1639, 68.56
300.5, 0.1633, 68.66
301.0, 0.1627, 68.75
301.5, 0.1621, 68.85
302.0, 0.1615, 68.95
302.5, 0.1608, 69.06
303.0, 0.1603, 69.14
303.5, 0.1597, 69.23
304.0, 0.1593, 69.30
304.5, 0.1586, 69.40
305.0, 0.1581, 69.48
305.5, 0.1577, 69.56
306.0, 0.1572, 69.64
306.5, 0.1566, 69.72
307.0, 0.1561, 69.81
307.5, 0.1556, 69.89
308.0, 0.1552, 69.95
308.5, 0.1549, 70.00
309.0, 0.1545, 70.07
309.5, 0.1540, 70.14
310.0, 0.1536, 70.20
310.5, 0.1533, 70.26
311.0, 0.1530, 70.31
311.5, 0.1524, 70.40
312.0, 0.1521, 70.45
312.5, 0.1517, 70.51
313.0, 0.1515, 70.56
313.5, 0.1512, 70.60
314.0, 0.1511, 70.62
314.5, 0.1507, 70.69
315.0, 0.1502, 70.75
315.5, 0.1500, 70.79
316.0, 0.1498, 70.82
316.5, 0.1493, 70.92
317.0, 0.1491, 70.95
317.5, 0.1489, 70.97
318.0, 0.1486, 71.02
318.5, 0.1485, 71.04
319.0, 0.1482, 71.09
319.5, 0.1477, 71.17
320.0, 0.1475, 71.21
320.5, 0.1473, 71.23
321.0, 0.1469, 71.29
321.5, 0.1467, 71.34
322.0, 0.1464, 71.38
322.5, 0.1463, 71.40
323.0, 0.1461, 71.43
323.5, 0.1459, 71.46
324.0, 0.1456, 71.51
324.5, 0.1453, 71.57
325.0, 0.1450, 71.61
325.5, 0.1450, 71.61
326.0, 0.1445, 71.69
326.5, 0.1442, 71.74
327.0, 0.1440, 71.78
327.5, 0.1439, 71.79
328.0, 0.1438, 71.82
328.5, 0.1437, 71.83
329.0, 0.1433, 71.89
329.5, 0.1430, 71.94
330.0, 0.1428, 71.97
330.5, 0.1427, 71.99
331.0, 0.1424, 72.04
331.5, 0.1420, 72.11
332.0, 0.1418, 72.14
332.5, 0.1417, 72.16
333.0, 0.1417, 72.16
333.5, 0.1415, 72.19
334.0, 0.1411, 72.26
334.5, 0.1409, 72.29
335.0, 0.1407, 72.32
335.5, 0.1405, 72.36
336.0, 0.1403, 72.40
336.5, 0.1400, 72.44
337.0, 0.1400, 72.44
337.5, 0.1398, 72.47
338.0, 0.1398, 72.48
338.5, 0.1396, 72.52
339.0, 0.1393, 72.56
339.5, 0.1395, 72.53
340.0, 0.1389, 72.63
340.5, 0.1389, 72.62
341.0, 0.1388, 72.64
341.5, 0.1388, 72.65
342.0, 0.1385, 72.69
342.5, 0.1385, 72.70
343.0, 0.1381, 72.76
343.5, 0.1382, 72.74
344.0, 0.1381, 72.76
344.5, 0.1379, 72.80
345.0, 0.1376, 72.84
345.5, 0.1372, 72.90
346.0, 0.1373, 72.90
346.5, 0.1371, 72.93
347.0, 0.1369, 72.97
347.5, 0.1367, 73.00
348.0, 0.1365, 73.03
348.5, 0.1365, 73.03
349.0, 0.1364, 73.05
349.5, 0.1361, 73.10
350.0, 0.1358, 73.15
350.5, 0.1356, 73.19
351.0, 0.1356, 73.19
351.5, 0.1354, 73.22
352.0, 0.1353, 73.24
352.5, 0.1350, 73.28
353.0, 0.1349, 73.29
353.5, 0.1349, 73.29
354.0, 0.1348, 73.32
354.5, 0.1345, 73.37
355.0, 0.1342, 73.41
355.5, 0.1341, 73.43
356.0, 0.1341, 73.44
356.5, 0.1338, 73.48
357.0, 0.1337, 73.50
357.5, 0.1336, 73.51
358.0, 0.1335, 73.53
358.5, 0.1334, 73.56
359.0, 0.1332, 73.58
359.5, 0.1330, 73.63
360.0, 0.1328, 73.65
360.5, 0.1326, 73.69
361.0, 0.1326, 73.70
361.5, 0.1324, 73.72
362.0, 0.1324, 73.72
362.5, 0.1323, 73.75
363.0, 0.1321, 73.77
363.5, 0.1320, 73.80
364.0, 0.1318, 73.83
364.5, 0.1315, 73.88
365.0, 0.1314, 73.89
365.5, 0.1313, 73.91
366.0, 0.1312, 73.93
366.5, 0.1310, 73.96
367.0, 0.1310, 73.95
367.5, 0.1310, 73.96
368.0, 0.1308, 73.99
368.5, 0.1306, 74.03
369.0, 0.1305, 74.05
369.5, 0.1304, 74.06
370.0, 0.1305, 74.05
370.5, 0.1306, 74.03
371.0, 0.1307, 74.00
371.5, 0.1306, 74.02
372.0, 0.1303, 74.08
372.5, 0.1301, 74.11
373.0, 0.1302, 74.09
373.5, 0.1303, 74.08
374.0, 0.1300, 74.12
374.5, 0.1297, 74.19
375.0, 0.1297, 74.18
375.5, 0.1296, 74.19
376.0, 0.1297, 74.19
376.5, 0.1294, 74.23
377.0, 0.1294, 74.23
377.5, 0.1294, 74.24
378.0, 0.1294, 74.23
378.5, 0.1292, 74.26
379.0, 0.1289, 74.31
379.5, 0.1287, 74.36
380.0, 0.1287, 74.35
380.5, 0.1288, 74.33
381.0, 0.1289, 74.33
381.5, 0.1284, 74.40
382.0, 0.1284, 74.41
382.5, 0.1284, 74.40
383.0, 0.1284, 74.40
383.5, 0.1283, 74.41
384.0, 0.1280, 74.48
384.5, 0.1280, 74.48
385.0, 0.1280, 74.48
385.5, 0.1280, 74.47
386.0, 0.1279, 74.49
386.5, 0.1277, 74.53
387.0, 0.1275, 74.55
387.5, 0.1276, 74.54
388.0, 0.1275, 74.56
388.5, 0.1275, 74.56
389.0, 0.1271, 74.62
389.5, 0.1271, 74.62
390.0, 0.1271, 74.63
390.5, 0.1272, 74.61
391.0, 0.1270, 74.64
391.5, 0.1270, 74.64
392.0, 0.1268, 74.68
392.5, 0.1269, 74.66
393.0, 0.1268, 74.67
393.5, 0.1267, 74.69
394.0, 0.1263, 74.76
394.5, 0.1265, 74.72
395.0, 0.1264, 74.74
395.5, 0.1264, 74.75
396.0, 0.1262, 74.79
396.5, 0.1261, 74.81
397.0, 0.1260, 74.82
397.5, 0.1261, 74.79
398.0, 0.1261, 74.81
398.5, 0.1259, 74.84
399.0, 0.1258, 74.85
399.5, 0.1257, 74.87
400.0, 0.1258, 74.85
400.5, 0.1257, 74.86
401.0, 0.1257, 74.88
401.5, 0.1255, 74.91
402.0, 0.1255, 74.90
402.5, 0.1255, 74.90
403.0, 0.1254, 74.93
403.5, 0.1253, 74.94
404.0, 0.1252, 74.95
404.5, 0.1251, 74.97
405.0, 0.1251, 74.97
405.5, 0.1250, 74.99
406.0, 0.1250, 74.99
406.5, 0.1248, 75.02
407.0, 0.1249, 75.01
407.5, 0.1248, 75.03
408.0, 0.1247, 75.03
408.5, 0.1246, 75.05
409.0, 0.1246, 75.06
409.5, 0.1245, 75.07
410.0, 0.1245, 75.07
410.5, 0.1245, 75.08
411.0, 0.1244, 75.10
411.5, 0.1243, 75.11
412.0, 0.1242, 75.13
412.5, 0.1243, 75.12
413.0, 0.1242, 75.13
413.5, 0.1241, 75.15
414.0, 0.1239, 75.17
414.5, 0.1240, 75.17
415.0, 0.1239, 75.18
415.5, 0.1239, 75.18
416.0, 0.1237, 75.21
416.5, 0.1237, 75.22
417.0, 0.1236, 75.23
417.5, 0.1237, 75.21
418.0, 0.1236, 75.23
418.5, 0.1235, 75.24
419.0, 0.1234, 75.26
419.5, 0.1234, 75.27
420.0, 0.1234, 75.27
420.5, 0.1234, 75.27
421.0, 0.1233, 75.29
421.5, 0.1232, 75.29
422.0, 0.1232, 75.30
422.5, 0.1232, 75.30
423.0, 0.1231, 75.33
423.5, 0.1230, 75.34
424.0, 0.1229, 75.35
424.5, 0.1229, 75.35
425.0, 0.1229, 75.35
425.5, 0.1229, 75.36
426.0, 0.1228, 75.38
426.5, 0.1227, 75.38
427.0, 0.1227, 75.39
427.5, 0.1226, 75.41
428.0, 0.1226, 75.41
428.5, 0.1226, 75.41
429.0, 0.1225, 75.42
429.5, 0.1225, 75.43
430.0, 0.1224, 75.44
430.5, 0.1223, 75.46
431.0, 0.1223, 75.45
431.5, 0.1222, 75.47
432.0, 0.1222, 75.47
432.5, 0.1222, 75.48
433.0, 0.1221, 75.49
433.5, 0.1220, 75.51
434.0, 0.1221, 75.50
434.5, 0.1220, 75.52
435.0, 0.1219, 75.52
435.5, 0.1219, 75.52
436.0, 0.1219, 75.53
436.5, 0.1218, 75.54
437.0, 0.1217, 75.56
437.5, 0.1217, 75.55
438.0, 0.1218, 75.55
438.5, 0.1217, 75.56
439.0, 0.1217, 75.57
439.5, 0.1216, 75.58
440.0, 0.1216, 75.58
440.5, 0.1215, 75.59
441.0, 0.1215, 75.59
441.5, 0.1214, 75.62
442.0, 0.1213, 75.62
442.5, 0.1213, 75.63
443.0, 0.1214, 75.62
443.5, 0.1213, 75.63
444.0, 0.1213, 75.63
444.5, 0.1211, 75.66
445.0, 0.1212, 75.64
445.5, 0.1212, 75.66
446.0, 0.1212, 75.65
446.5, 0.1209, 75.70
447.0, 0.1210, 75.69
447.5, 0.1209, 75.70
448.0, 0.1211, 75.67
448.5, 0.1210, 75.69
449.0, 0.1209, 75.70
449.5, 0.1207, 75.74
450.0, 0.1208, 75.71
450.5, 0.1208, 75.72
451.0, 0.1207, 75.74
451.5, 0.1207, 75.74
452.0, 0.1206, 75.75
452.5, 0.1206, 75.75
453.0, 0.1205, 75.77
453.5, 0.1205, 75.77
454.0, 0.1205, 75.76
454.5, 0.1205, 75.78
455.0, 0.1205, 75.78
455.5, 0.1204, 75.79
456.0, 0.1204, 75.79
456.5, 0.1203, 75.80
457.0, 0.1203, 75.80
457.5, 0.1202, 75.82
458.0, 0.1202, 75.82
458.5, 0.1202, 75.83
459.0, 0.1202, 75.82
459.5, 0.1201, 75.83
460.0, 0.1201, 75.84
460.5, 0.1201, 75.84
461.0, 0.1201, 75.84
461.5, 0.1200, 75.86
462.0, 0.1200, 75.86
462.5, 0.1199, 75.88
463.0, 0.1200, 75.87
463.5, 0.1199, 75.88
464.0, 0.1199, 75.87
464.5, 0.1198, 75.90
465.0, 0.1198, 75.90
465.5, 0.1198, 75.89
466.0, 0.1198, 75.89
466.5, 0.1198, 75.90
467.0, 0.1197, 75.91
467.5, 0.1196, 75.93
468.0, 0.1195, 75.94
468.5, 0.1196, 75.94
469.0, 0.1195, 75.94
469.5, 0.1195, 75.95
470.0, 0.1195, 75.95
470.5, 0.1194, 75.96
471.0, 0.1194, 75.96
471.5, 0.1194, 75.96
472.0, 0.1194, 75.96
472.5, 0.1193, 75.98
473.0, 0.1193, 75.99
473.5, 0.1193, 75.98
474.0, 0.1193, 75.99
474.5, 0.1192, 75.99
475.0, 0.1192, 76.00
475.5, 0.1191, 76.02
476.0, 0.1192, 76.00
476.5, 0.1191, 76.02
477.0, 0.1190, 76.02
477.5, 0.1190, 76.04
478.0, 0.1190, 76.04
478.5, 0.1190, 76.02
479.0, 0.1190, 76.03
479.5, 0.1189, 76.05
480.0, 0.1189, 76.05
480.5, 0.1189, 76.05
481.0, 0.1189, 76.04
481.5, 0.1188, 76.07
482.0, 0.1189, 76.05
482.5, 0.1188, 76.07
483.0, 0.1188, 76.08
483.5, 0.1188, 76.08
484.0, 0.1187, 76.08
484.5, 0.1186, 76.10
485.0, 0.1186, 76.10
485.5, 0.1187, 76.09
486.0, 0.1186, 76.10
486.5, 0.1186, 76.10
487.0, 0.1186, 76.10
487.5, 0.1186, 76.11
488.0, 0.1186, 76.11
488.5, 0.1185, 76.12
489.0, 0.1185, 76.13
489.5, 0.1184, 76.13
490.0, 0.1184, 76.14
490.5, 0.1184, 76.13
491.0, 0.1184, 76.13
491.5, 0.1183, 76.16
492.0, 0.1184, 76.14
492.5, 0.1182, 76.17
493.0, 0.1183, 76.16
493.5, 0.1183, 76.15
494.0, 0.1182, 76.17
494.5, 0.1182, 76.17
495.0, 0.1182, 76.18
495.5, 0.1182, 76.17
496.0, 0.1182, 76.18
496.5, 0.1181, 76.19
497.0, 0.1181, 76.19
497.5, 0.1181, 76.19
498.0, 0.1181, 76.20
498.5, 0.1181, 76.20
499.0, 0.1179, 76.22
499.5, 0.1180, 76.21
500.0, 0.1180, 76.22
500.5, 0.1180, 76.21
501.0, 0.1180, 76.21
501.5, 0.1179, 76.22
502.0, 0.1179, 76.22
502.5, 0.1178, 76.24
503.0, 0.1179, 76.22
503.5, 0.1179, 76.23
504.0, 0.1178, 76.25
504.5, 0.1178, 76.25
505.0, 0.1178, 76.24
505.5, 0.1178, 76.25
506.0, 0.1177, 76.25
506.5, 0.1178, 76.24
507.0, 0.1178, 76.25
507.5, 0.1178, 76.24
508.0, 0.1178, 76.24
508.5, 0.1177, 76.26
509.0, 0.1178, 76.25
509.5, 0.1176, 76.27
510.0, 0.1177, 76.26
510.5, 0.1177, 76.26
511.0, 0.1176, 76.27
511.5, 0.1176, 76.28
512.0, 0.1176, 76.28
512.5, 0.1176, 76.27
513.0, 0.1177, 76.25
513.5, 0.1175, 76.29
514.0, 0.1175, 76.29
514.5, 0.1176, 76.28
515.0, 0.1176, 76.28
515.5, 0.1176, 76.28
516.0, 0.1176, 76.28
516.5, 0.1174, 76.31
517.0, 0.1175, 76.30
517.5, 0.1175, 76.30
518.0, 0.1175, 76.29
518.5, 0.1174, 76.31
519.0, 0.1174, 76.31
519.5, 0.1174, 76.31
520.0, 0.1175, 76.30
520.5, 0.1174, 76.31
521.0, 0.1174, 76.32
521.5, 0.1173, 76.34
522.0, 0.1172, 76.34
522.5, 0.1173, 76.33
523.0, 0.1173, 76.34
523.5, 0.1172, 76.34
524.0, 0.1173, 76.34
524.5, 0.1173, 76.34
525.0, 0.1173, 76.34
525.5, 0.1172, 76.35
526.0, 0.1172, 76.35
526.5, 0.1172, 76.35
527.0, 0.1172, 76.35
527.5, 0.1173, 76.34
528.0, 0.1172, 76.35
528.5, 0.1172, 76.35
529.0, 0.1171, 76.37
529.5, 0.1171, 76.36
530.0, 0.1172, 76.35
530.5, 0.1172, 76.36
531.0, 0.1170, 76.38
531.5, 0.1170, 76.38
532.0, 0.1171, 76.37
532.5, 0.1171, 76.36
533.0, 0.1171, 76.36
533.5, 0.1170, 76.39
534.0, 0.1170, 76.38
534.5, 0.1171, 76.37
535.0, 0.1171, 76.37
535.5, 0.1170, 76.39
536.0, 0.1169, 76.40
536.5, 0.1168, 76.42
537.0, 0.1170, 76.39
537.5, 0.1169, 76.39
538.0, 0.1168, 76.41
538.5, 0.1167, 76.43
539.0, 0.1169, 76.41
539.5, 0.1168, 76.43
540.0, 0.1169, 76.41
540.5, 0.1167, 76.43
541.0, 0.1167, 76.44
541.5, 0.1168, 76.42
542.0, 0.1168, 76.41
542.5, 0.1167, 76.43
543.0, 0.1167, 76.44
543.5, 0.1166, 76.45
544.0, 0.1166, 76.45
544.5, 0.1167, 76.43
545.0, 0.1167, 76.44
545.5, 0.1167, 76.44
546.0, 0.1166, 76.46
546.5, 0.1165, 76.47
547.0, 0.1166, 76.45
547.5, 0.1166, 76.45
548.0, 0.1166, 76.46
548.5, 0.1166, 76.46
549.0, 0.1166, 76.45
549.5, 0.1166, 76.46
550.0, 0.1166, 76.46
550.5, 0.1165, 76.47
551.0, 0.1166, 76.46
551.5, 0.1165, 76.48
552.0, 0.1165, 76.47
552.5, 0.1165, 76.48
553.0, 0.1165, 76.47
553.5, 0.1165, 76.48
554.0, 0.1165, 76.47
554.5, 0.1164, 76.48
555.0, 0.1164, 76.48
555.5, 0.1165, 76.48
556.0, 0.1164, 76.49
556.5, 0.1164, 76.49
557.0, 0.1164, 76.49
557.5, 0.1164, 76.48
558.0, 0.1164, 76.49
558.5, 0.1165, 76.48
559.0, 0.1164, 76.49
559.5, 0.1163, 76.50
560.0, 0.1163, 76.51
560.5, 0.1163, 76.50
561.0, 0.1163, 76.50
561.5, 0.1162, 76.52
562.0, 0.1162, 76.52
562.5, 0.1162, 76.52
563.0, 0.1163, 76.51
563.5, 0.1163, 76.51
564.0, 0.1163, 76.51
564.5, 0.1162, 76.53
565.0, 0.1162, 76.52
565.5, 0.1163, 76.51
566.0, 0.1163, 76.51
566.5, 0.1161, 76.54
567.0, 0.1162, 76.52
567.5, 0.1162, 76.52
568.0, 0.1162, 76.53
568.5, 0.1162, 76.52
569.0, 0.1161, 76.55
569.5, 0.1161, 76.54
570.0, 0.1161, 76.54
570.5, 0.1162, 76.53
571.0, 0.1160, 76.56
571.5, 0.1161, 76.54
572.0, 0.1160, 76.56
572.5, 0.1161, 76.54
573.0, 0.1161, 76.53
573.5, 0.1161, 76.55
574.0, 0.1160, 76.55
574.5, 0.1161, 76.55
575.0, 0.1160, 76.55
575.5, 0.1161, 76.54
576.0, 0.1161, 76.54
576.5, 0.1160, 76.57
577.0, 0.1161, 76.54
577.5, 0.1160, 76.56
578.0, 0.1160, 76.55
578.5, 0.1153, 76.68
579.0, 0.1153, 76.69
579.5, 0.1153, 76.68
580.0, 0.1155, 76.65
580.5, 0.1154, 76.66
581.0, 0.1154, 76.66
581.5, 0.1154, 76.67
582.0, 0.1154, 76.66
582.5, 0.1155, 76.64
583.0, 0.1155, 76.65
583.5, 0.1155, 76.65
584.0, 0.1156, 76.64
584.5, 0.1155, 76.64
585.0, 0.1155, 76.65
585.5, 0.1158, 76.59
586.0, 0.1160, 76.56
586.5, 0.1159, 76.57
587.0, 0.1159, 76.58
587.5, 0.1158, 76.59
588.0, 0.1158, 76.59
588.5, 0.1159, 76.58
589.0, 0.1160, 76.55
589.5, 0.1160, 76.57
590.0, 0.1158, 76.59
590.5, 0.1159, 76.58
591.0, 0.1159, 76.58
591.5, 0.1158, 76.59
592.0, 0.1159, 76.59
592.5, 0.1158, 76.59
593.0, 0.1158, 76.60
593.5, 0.1158, 76.60
594.0, 0.1159, 76.58
594.5, 0.1158, 76.60
595.0, 0.1158, 76.60
595.5, 0.1157, 76.60
596.0, 0.1158, 76.59
596.5, 0.1157, 76.61
597.0, 0.1158, 76.60
597.5, 0.1157, 76.62
598.0, 0.1158, 76.59
598.5, 0.1158, 76.60
599.0, 0.1157, 76.60
599.5, 0.1157, 76.61
600.0, 0.1156, 76.63
600.5, 0.1157, 76.61
601.0, 0.1157, 76.62
601.5, 0.1157, 76.62
602.0, 0.1157, 76.61
602.5, 0.1157, 76.61
603.0, 0.1156, 76.63
603.5, 0.1157, 76.61
604.0, 0.1156, 76.63
604.5, 0.1156, 76.63
605.0, 0.1156, 76.63
605.5, 0.1156, 76.63
606.0, 0.1156, 76.62
606.5, 0.1156, 76.64
607.0, 0.1155, 76.64
607.5, 0.1155, 76.65
608.0, 0.1155, 76.64
608.5, 0.1156, 76.63
609.0, 0.1156, 76.64
609.5, 0.1155, 76.64
610.0, 0.1156, 76.64
610.5, 0.1155, 76.64
611.0, 0.1155, 76.65
611.5, 0.1155, 76.65
612.0, 0.1155, 76.66
612.5, 0.1155, 76.66
613.0, 0.1154, 76.66
613.5, 0.1155, 76.66
614.0, 0.1155, 76.65
614.5, 0.1154, 76.66
615.0, 0.1155, 76.65
615.5, 0.1154, 76.66
616.0, 0.1155, 76.66
616.5, 0.1154, 76.67
617.0, 0.1155, 76.66
617.5, 0.1154, 76.66
618.0, 0.1154, 76.66
618.5, 0.1154, 76.67
619.0, 0.1153, 76.68
619.5, 0.1154, 76.67
620.0, 0.1154, 76.67
620.5, 0.1153, 76.69
621.0, 0.1154, 76.67
621.5, 0.1154, 76.67
622.0, 0.1153, 76.68
622.5, 0.1153, 76.68
623.0, 0.1153, 76.68
623.5, 0.1153, 76.68
624.0, 0.1154, 76.67
624.5, 0.1153, 76.68
625.0, 0.1153, 76.68
625.5, 0.1153, 76.68
626.0, 0.1153, 76.68
626.5, 0.1152, 76.69
627.0, 0.1154, 76.67
627.5, 0.1153, 76.69
628.0, 0.1153, 76.69
628.5, 0.1152, 76.70
629.0, 0.1152, 76.71
629.5, 0.1153, 76.69
630.0, 0.1153, 76.69
630.5, 0.1152, 76.70
631.0, 0.1153, 76.69
631.5, 0.1152, 76.69
632.0, 0.1151, 76.71
632.5, 0.1152, 76.71
633.0, 0.1151, 76.71
633.5, 0.1152, 76.71
634.0, 0.1152, 76.71
634.5, 0.1151, 76.71
635.0, 0.1151, 76.72
635.5, 0.1151, 76.72
636.0, 0.1151, 76.71
636.5, 0.1151, 76.72
637.0, 0.1151, 76.72
637.5, 0.1151, 76.72
638.0, 0.1151, 76.73
638.5, 0.1151, 76.73
639.0, 0.1151, 76.71
639.5, 0.1152, 76.71
640.0, 0.1151, 76.72
640.5, 0.1151, 76.72
641.0, 0.1151, 76.72
641.5, 0.1150, 76.73
642.0, 0.1151, 76.72
642.5, 0.1151, 76.72
643.0, 0.1150, 76.74
643.5, 0.1151, 76.72
644.0, 0.1150, 76.74
644.5, 0.1150, 76.74
645.0, 0.1150, 76.73
645.5, 0.1151, 76.72
646.0, 0.1150, 76.73
646.5, 0.1150, 76.73
647.0, 0.1150, 76.74
647.5, 0.1150, 76.74
648.0, 0.1150, 76.74
648.5, 0.1150, 76.74
649.0, 0.1150, 76.73
649.5, 0.1150, 76.74
650.0, 0.1150, 76.73
650.5, 0.1150, 76.73
651.0, 0.1150, 76.74
651.5, 0.1150, 76.74
652.0, 0.1150, 76.73
652.5, 0.1149, 76.76
653.0, 0.1150, 76.74
653.5, 0.1150, 76.73
654.0, 0.1149, 76.75
654.5, 0.1149, 76.75
655.0, 0.1150, 76.74
655.5, 0.1149, 76.75
656.0, 0.1149, 76.76
656.5, 0.1149, 76.75
657.0, 0.1150, 76.74
657.5, 0.1150, 76.74
658.0, 0.1149, 76.76
658.5, 0.1148, 76.77
659.0, 0.1149, 76.76
659.5, 0.1149, 76.76
660.0, 0.1149, 76.75
660.5, 0.1149, 76.76
661.0, 0.1150, 76.74
661.5, 0.1148, 76.76
662.0, 0.1149, 76.76
662.5, 0.1149, 76.76
663.0, 0.1148, 76.78
663.5, 0.1149, 76.76
664.0, 0.1148, 76.77
664.5, 0.1149, 76.75
665.0, 0.1149, 76.75
665.5, 0.1148, 76.77
666.0, 0.1148, 76.78
666.5, 0.1148, 76.77
667.0, 0.1147, 76.78
667.5, 0.1148, 76.77
668.0, 0.1148, 76.77
668.5, 0.1147, 76.78
669.0, 0.1148, 76.77
669.5, 0.1148, 76.78
670.0, 0.1148, 76.78
670.5, 0.1147, 76.78
671.0, 0.1147, 76.79
671.5, 0.1148, 76.78
672.0, 0.1148, 76.78
672.5, 0.1147, 76.78
673.0, 0.1146, 76.80
673.5, 0.1147, 76.80
674.0, 0.1147, 76.79
674.5, 0.1147, 76.79
675.0, 0.1146, 76.80
675.5, 0.1146, 76.80
676.0, 0.1146, 76.81
676.5, 0.1147, 76.79
677.0, 0.1146, 76.81
677.5, 0.1146, 76.80
678.0, 0.1147, 76.80
678.5, 0.1146, 76.80
679.0, 0.1146, 76.81
679.5, 0.1146, 76.80
680.0, 0.1146, 76.81
680.5, 0.1145, 76.82
681.0, 0.1146, 76.80
681.5, 0.1146, 76.82
682.0, 0.1147, 76.80
682.5, 0.1145, 76.82
683.0, 0.1145, 76.82
683.5, 0.1144, 76.83
684.0, 0.1146, 76.80
684.5, 0.1145, 76.82
685.0, 0.1145, 76.83
685.5, 0.1144, 76.84
686.0, 0.1145, 76.82
686.5, 0.1144, 76.83
687.0, 0.1144, 76.84
687.5, 0.1145, 76.83
688.0, 0.1144, 76.84
688.5, 0.1145, 76.83
689.0, 0.1144, 76.84
689.5, 0.1145, 76.83
690.0, 0.1144, 76.84
690.5, 0.1144, 76.84
691.0, 0.1143, 76.85
691.5, 0.1145, 76.83
692.0, 0.1144, 76.84
692.5, 0.1145, 76.83
693.0, 0.1144, 76.85
693.5, 0.1144, 76.84
694.0, 0.1144, 76.84
694.5, 0.1143, 76.85
695.0, 0.1143, 76.86
695.5, 0.1143, 76.86
696.0, 0.1144, 76.85
696.5, 0.1144, 76.84
697.0, 0.1144, 76.85
697.5, 0.1144, 76.84
698.0, 0.1143, 76.86
698.5, 0.1143, 76.86
699.0, 0.1143, 76.85
699.5, 0.1143, 76.86
700.0, 0.1143, 76.86
700.5, 0.1143, 76.86
701.0, 0.1142, 76.87
701.5, 0.1143, 76.87
702.0, 0.1142, 76.88
702.5, 0.1142, 76.88
703.0, 0.1142, 76.88
703.5, 0.1142, 76.88
704.0, 0.1143, 76.86
704.5, 0.1142, 76.87
705.0, 0.1142, 76.88
705.5, 0.1142, 76.88
706.0, 0.1142, 76.87
706.5, 0.1142, 76.88
707.0, 0.1142, 76.88
707.5, 0.1142, 76.88
708.0, 0.1142, 76.87
708.5, 0.1143, 76.86
709.0, 0.1142, 76.88
709.5, 0.1142, 76.88
710.0, 0.1142, 76.88
710.5, 0.1136, 76.99
711.0, 0.1136, 76.99
711.5, 0.1135, 76.99
712.0, 0.1135, 76.99
712.5, 0.1135, 77.00
713.0, 0.1136, 76.99
713.5, 0.1136, 76.99
714.0, 0.1136, 76.99
714.5, 0.1136, 76.99
715.0, 0.1136, 76.99
715.5, 0.1136, 76.99
716.0, 0.1136, 76.99
716.5, 0.1136, 76.99
717.0, 0.1137, 76.97
717.5, 0.1136, 76.99
718.0, 0.1136, 76.98
718.5, 0.1137, 76.97
719.0, 0.1136, 76.98
719.5, 0.1136, 76.98
720.0, 0.1136, 76.98
720.5, 0.1136, 76.98
721.0, 0.1136, 76.98
721.5, 0.1137, 76.97
722.0, 0.1137, 76.97
722.5, 0.1136, 76.98
723.0, 0.1137, 76.96
723.5, 0.1137, 76.96
724.0, 0.1137, 76.97
724.5, 0.1138, 76.96
725.0, 0.1138, 76.95
725.5, 0.1138, 76.96
726.0, 0.1138, 76.95
726.5, 0.1138, 76.95
727.0, 0.1138, 76.94
727.5, 0.1138, 76.95
728.0, 0.1139, 76.94
728.5, 0.1138, 76.95
729.0, 0.1139, 76.93
729.5, 0.1138, 76.94
730.0, 0.1139, 76.92
730.5, 0.1139, 76.94
731.0, 0.1140, 76.92
731.5, 0.1140, 76.92
732.0, 0.1140, 76.91
732.5, 0.1140, 76.91
733.0, 0.1140, 76.91
733.5, 0.1141, 76.90
734.0, 0.1141, 76.89
734.5, 0.1141, 76.90
735.0, 0.1141, 76.89
735.5, 0.1141, 76.89
736.0, 0.1141, 76.89
736.5, 0.1142, 76.89
737.0, 0.1142, 76.88
737.5, 0.1141, 76.89
738.0, 0.1142, 76.88
738.5, 0.1141, 76.89
739.0, 0.1142, 76.89
739.5, 0.1141, 76.89
740.0, 0.1141, 76.89
740.5, 0.1141, 76.90
741.0, 0.1142, 76.88
741.5, 0.1141, 76.90
742.0, 0.1142, 76.88
742.5, 0.1141, 76.90
743.0, 0.1141, 76.89
743.5, 0.1141, 76.90
744.0, 0.1141, 76.89
744.5, 0.1141, 76.89
745.0, 0.1141, 76.90
745.5, 0.1141, 76.89
746.0, 0.1141, 76.89
746.5, 0.1141, 76.90
747.0, 0.1141, 76.90
747.5, 0.1141, 76.90
748.0, 0.1140, 76.92
748.5, 0.1141, 76.90
749.0, 0.1140, 76.91
749.5, 0.1140, 76.91
750.0, 0.1140, 76.92
750.5, 0.1140, 76.91
751.0, 0.1140, 76.91
751.5, 0.1141, 76.89
752.0, 0.1141, 76.89
752.5, 0.1140, 76.91
753.0, 0.1140, 76.92
753.5, 0.1140, 76.91
754.0, 0.1141, 76.90
754.5, 0.1140, 76.92
755.0, 0.1140, 76.90
755.5, 0.1139, 76.92
756.0, 0.1140, 76.92
756.5, 0.1140, 76.92
757.0, 0.1139, 76.93
757.5, 0.1139, 76.93
758.0, 0.1139, 76.94
758.5, 0.1138, 76.94
759.0, 0.1138, 76.94
759.5, 0.1139, 76.94
760.0, 0.1138, 76.94
760.5, 0.1138, 76.94
761.0, 0.1138, 76.95
761.5, 0.1139, 76.93
762.0, 0.1138, 76.95
762.5, 0.1138, 76.94
763.0, 0.1138, 76.95
763.5, 0.1138, 76.94
764.0, 0.1138, 76.94
764.5, 0.1138, 76.95
765.0, 0.1138, 76.95
765.5, 0.1137, 76.96
766.0, 0.1137, 76.96
766.5, 0.1138, 76.96
767.0, 0.1138, 76.95
767.5, 0.1136, 76.99
768.0, 0.1137, 76.97
768.5, 0.1136, 76.98
769.0, 0.1137, 76.98
769.5, 0.1136, 76.98
770.0, 0.1137, 76.97
770.5, 0.1136, 76.99
771.0, 0.1136, 76.98
771.5, 0.1136, 76.98
772.0, 0.1136, 76.98
772.5, 0.1136, 76.99
773.0, 0.1135, 76.99
773.5, 0.1136, 76.99
774.0, 0.1135, 76.99
774.5, 0.1136, 76.99
775.0, 0.1134, 77.01
775.5, 0.1135, 77.01
776.0, 0.1135, 77.01
776.5, 0.1135, 77.01
777.0, 0.1135, 77.00
777.5, 0.1134, 77.02
778.0, 0.1134, 77.02
778.5, 0.1134, 77.02
779.0, 0.1134, 77.02
779.5, 0.1134, 77.02
780.0, 0.1133, 77.04
780.5, 0.1132, 77.05
781.0, 0.1133, 77.03
781.5, 0.1133, 77.04
782.0, 0.1132, 77.05
782.5, 0.1132, 77.06
783.0, 0.1132, 77.05
783.5, 0.1132, 77.05
784.0, 0.1132, 77.06
784.5, 0.1131, 77.08
785.0, 0.1131, 77.07
785.5, 0.1132, 77.06
786.0, 0.1131, 77.07
786.5, 0.1132, 77.05
787.0, 0.1131, 77.07
787.5, 0.1130, 77.09
788.0, 0.1131, 77.08
788.5, 0.1130, 77.09
789.0, 0.1131, 77.08
789.5, 0.1130, 77.09
790.0, 0.1130, 77.10
790.5, 0.1130, 77.09
791.0, 0.1130, 77.09
791.5, 0.1129, 77.10
792.0, 0.1129, 77.10
792.5, 0.1129, 77.12
793.0, 0.1129, 77.10
793.5, 0.1129, 77.10
794.0, 0.1129, 77.10
794.5, 0.1128, 77.12
795.0, 0.1129, 77.11
795.5, 0.1129, 77.11
796.0, 0.1129, 77.12
796.5, 0.1129, 77.12
797.0, 0.1128, 77.12
797.5, 0.1128, 77.13
798.0, 0.1128, 77.13
798.5, 0.1129, 77.12
799.0, 0.1127, 77.14
799.5, 0.1127, 77.14
800.0, 0.1127, 77.14
800.5, 0.1120, 77.28
801.0, 0.1121, 77.26
801.5, 0.1120, 77.28
802.0, 0.1121, 77.26
802.5, 0.1120, 77.27
803.0, 0.1121, 77.25
803.5, 0.1121, 77.25
804.0, 0.1121, 77.25
804.5, 0.1120, 77.26
805.0, 0.1121, 77.26
805.5, 0.1121, 77.25
806.0, 0.1121, 77.25
806.5, 0.1121, 77.24
807.0, 0.1121, 77.25
807.5, 0.1121, 77.24
808.0, 0.1121, 77.25
808.5, 0.1121, 77.25
809.0, 0.1120, 77.26
809.5, 0.1121, 77.25
810.0, 0.1121, 77.25
810.5, 0.1121, 77.25
811.0, 0.1121, 77.25
811.5, 0.1121, 77.25
812.0, 0.1121, 77.25
812.5, 0.1120, 77.27
813.0, 0.1121, 77.25
813.5, 0.1121, 77.25
814.0, 0.1121, 77.25
814.5, 0.1120, 77.27
815.0, 0.1121, 77.24
815.5, 0.1120, 77.26
816.0, 0.1121, 77.25
816.5, 0.1120, 77.26
817.0, 0.1121, 77.25
817.5, 0.1121, 77.26
818.0, 0.1121, 77.24
818.5, 0.1121, 77.25
819.0, 0.1120, 77.26
819.5, 0.1120, 77.26
820.0, 0.1120, 77.26
820.5, 0.1121, 77.25
821.0, 0.1121, 77.25
821.5, 0.1121, 77.25
822.0, 0.1120, 77.26
822.5, 0.1120, 77.27
823.0, 0.1120, 77.26
823.5, 0.1120, 77.27
824.0, 0.1120, 77.26
824.5, 0.1120, 77.27
825.0, 0.1121, 77.25
825.5, 0.1122, 77.24
826.0, 0.1121, 77.25
826.5, 0.1121, 77.25
827.0, 0.1121, 77.25
827.5, 0.1121, 77.25
828.0, 0.1121, 77.25
828.5, 0.1121, 77.24
829.0, 0.1122, 77.24
829.5, 0.1122, 77.23
830.0, 0.1122, 77.23
830.5, 0.1123, 77.22
831.0, 0.1122, 77.23
831.5, 0.1123, 77.22
832.0, 0.1123, 77.22
832.5, 0.1123, 77.21
833.0, 0.1123, 77.21
833.5, 0.1123, 77.21
834.0, 0.1123, 77.21
834.5, 0.1123, 77.21
835.0, 0.1123, 77.21
835.5, 0.1124, 77.20
836.0, 0.1124, 77.19
836.5, 0.1123, 77.21
837.0, 0.1123, 77.21
837.5, 0.1123, 77.22
838.0, 0.1123, 77.21
838.5, 0.1123, 77.22
839.0, 0.1123, 77.22
839.5, 0.1123, 77.22
840.0, 0.1123, 77.21
840.5, 0.1122, 77.23
841.0, 0.1122, 77.23
841.5, 0.1122, 77.23
842.0, 0.1123, 77.21
842.5, 0.1123, 77.21
843.0, 0.1123, 77.22
843.5, 0.1122, 77.23
844.0, 0.1122, 77.22
844.5, 0.1123, 77.22
845.0, 0.1122, 77.23
845.5, 0.1122, 77.23
846.0, 0.1122, 77.23
846.5, 0.1122, 77.23
847.0, 0.1123, 77.22
847.5, 0.1122, 77.24
848.0, 0.1123, 77.22
848.5, 0.1121, 77.24
849.0, 0.1123, 77.22
849.5, 0.1122, 77.23
850.0, 0.1121, 77.24
850.5, 0.1117, 77.32
851.0, 0.1117, 77.32
851.5, 0.1117, 77.32
852.0, 0.1117, 77.31
852.5, 0.1117, 77.33
853.0, 0.1117, 77.33
853.5, 0.1117, 77.32
854.0, 0.1117, 77.32
854.5, 0.1117, 77.33
855.0, 0.1117, 77.33
855.5, 0.1117, 77.32
856.0, 0.1117, 77.33
856.5, 0.1116, 77.33
857.0, 0.1116, 77.33
857.5, 0.1116, 77.34
858.0, 0.1116, 77.33
858.5, 0.1117, 77.32
859.0, 0.1116, 77.34
859.5, 0.1116, 77.34
860.0, 0.1116, 77.34
860.5, 0.1116, 77.34
861.0, 0.1116, 77.34
861.5, 0.1116, 77.34
862.0, 0.1116, 77.35
862.5, 0.1115, 77.35
863.0, 0.1116, 77.34
863.5, 0.1116, 77.34
864.0, 0.1115, 77.35
864.5, 0.1115, 77.35
865.0, 0.1116, 77.35
865.5, 0.1115, 77.36
866.0, 0.1115, 77.37
866.5, 0.1116, 77.34
867.0, 0.1115, 77.35
867.5, 0.1116, 77.34
868.0, 0.1115, 77.35
868.5, 0.1116, 77.35
869.0, 0.1115, 77.36
869.5, 0.1115, 77.35
870.0, 0.1115, 77.36
870.5, 0.1115, 77.36
871.0, 0.1115, 77.36
871.5, 0.1116, 77.34
872.0, 0.1115, 77.37
872.5, 0.1115, 77.35
873.0, 0.1115, 77.36
873.5, 0.1115, 77.35
874.0, 0.1115, 77.36
874.5, 0.1115, 77.36
875.0, 0.1115, 77.35
875.5, 0.1115, 77.36
876.0, 0.1115, 77.36
876.5, 0.1115, 77.37
877.0, 0.1115, 77.35
877.5, 0.1115, 77.36
878.0, 0.1115, 77.36
878.5, 0.1115, 77.35
879.0, 0.1115, 77.36
879.5, 0.1114, 77.37
880.0, 0.1115, 77.36
880.5, 0.1114, 77.37
881.0, 0.1114, 77.37
881.5, 0.1114, 77.37
882.0, 0.1114, 77.38
882.5, 0.1115, 77.36
883.0, 0.1114, 77.38
883.5, 0.1114, 77.37
884.0, 0.1113, 77.38
884.5, 0.1114, 77.37
885.0, 0.1114, 77.38
885.5, 0.1114, 77.37
886.0, 0.1114, 77.38
886.5, 0.1114, 77.37
887.0, 0.1114, 77.37
887.5, 0.1114, 77.37
888.0, 0.1114, 77.37
888.5, 0.1114, 77.38
889.0, 0.1114, 77.37
889.5, 0.1114, 77.38
890.0, 0.1114, 77.37
890.5, 0.1114, 77.38
891.0, 0.1114, 77.37
891.5, 0.1114, 77.38
892.0, 0.1114, 77.38
892.5, 0.1114, 77.37
893.0, 0.1114, 77.37
893.5, 0.1114, 77.38
894.0, 0.1114, 77.37
894.5, 0.1114, 77.38
895.0, 0.1113, 77.39
895.5, 0.1114, 77.38
896.0, 0.1114, 77.38
896.5, 0.1113, 77.39
897.0, 0.1113, 77.39
897.5, 0.1113, 77.38
898.0, 0.1113, 77.39
898.5, 0.1113, 77.39
899.0, 0.1113, 77.39
899.5, 0.1113, 77.39
900.0, 0.1113, 77.39
900.5, 0.1114, 77.38
901.0, 0.1113, 77.39
901.5, 0.1113, 77.39
902.0, 0.1113, 77.39
902.5, 0.1114, 77.38
903.0, 0.1113, 77.40
903.5, 0.1113, 77.39
904.0, 0.1113, 77.40
904.5, 0.1113, 77.39
905.0, 0.1113, 77.40
905.5, 0.1112, 77.40
906.0, 0.1112, 77.40
906.5, 0.1113, 77.39
907.0, 0.1113, 77.40
907.5, 0.1113, 77.39
908.0, 0.1113, 77.39
908.5, 0.1113, 77.40
909.0, 0.1113, 77.39
909.5, 0.1113, 77.39
910.0, 0.1113, 77.39
910.5, 0.1113, 77.40
911.0, 0.1114, 77.38
911.5, 0.1113, 77.39
912.0, 0.1113, 77.39
912.5, 0.1113, 77.39
913.0, 0.1113, 77.39
913.5, 0.1113, 77.38
914.0, 0.1114, 77.38
914.5, 0.1114, 77.38
915.0, 0.1113, 77.39
915.5, 0.1114, 77.37
916.0, 0.1114, 77.37
916.5, 0.1115, 77.36
917.0, 0.1114, 77.38
917.5, 0.1115, 77.35
918.0, 0.1115, 77.36
918.5, 0.1116, 77.33
919.0, 0.1116, 77.34
919.5, 0.1117, 77.32
920.0, 0.1116, 77.33
920.5, 0.1118, 77.31
921.0, 0.1117, 77.32
921.5, 0.1118, 77.30
922.0, 0.1118, 77.30
922.5, 0.1118, 77.30
923.0, 0.1119, 77.28
923.5, 0.1120, 77.27
924.0, 0.1121, 77.26
924.5, 0.1120, 77.27
925.0, 0.1122, 77.23
925.5, 0.1121, 77.24
926.0, 0.1123, 77.22
926.5, 0.1123, 77.21
927.0, 0.1124, 77.20
927.5, 0.1125, 77.19
928.0, 0.1125, 77.17
928.5, 0.1126, 77.16
929.0, 0.1127, 77.14
929.5, 0.1128, 77.12
930.0, 0.1129, 77.11
930.5, 0.1130, 77.09
931.0, 0.1131, 77.08
931.5, 0.1132, 77.05
932.0, 0.1133, 77.04
932.5, 0.1134, 77.01
933.0, 0.1135, 77.00
933.5, 0.1137, 76.96
934.0, 0.1137, 76.96
934.5, 0.1139, 76.93
935.0, 0.1140, 76.91
935.5, 0.1142, 76.88
936.0, 0.1144, 76.85
936.5, 0.1144, 76.84
937.0, 0.1146, 76.81
937.5, 0.1148, 76.78
938.0, 0.1149, 76.75
938.5, 0.1150, 76.74
939.0, 0.1152, 76.71
939.5, 0.1154, 76.67
940.0, 0.1155, 76.65
940.5, 0.1157, 76.62
941.0, 0.1158, 76.59
941.5, 0.1160, 76.55
942.0, 0.1162, 76.53
942.5, 0.1164, 76.49
943.0, 0.1165, 76.47
943.5, 0.1167, 76.44
944.0, 0.1169, 76.41
944.5, 0.1172, 76.36
945.0, 0.1174, 76.31
945.5, 0.1175, 76.29
946.0, 0.1176, 76.27
946.5, 0.1179, 76.22
947.0, 0.1182, 76.18
947.5, 0.1184, 76.14
948.0, 0.1187, 76.09
948.5, 0.1188, 76.06
949.0, 0.1191, 76.01
949.5, 0.1193, 75.98
950.0, 0.1196, 75.92
950.5, 0.1199, 75.87
951.0, 0.1201, 75.83
951.5, 0.1205, 75.77
952.0, 0.1208, 75.73
952.5, 0.1213, 75.63
953.0, 0.1215, 75.60
953.5, 0.1219, 75.53
954.0, 0.1221, 75.49
954.5, 0.1226, 75.41
955.0, 0.1228, 75.36
955.5, 0.1232, 75.31
956.0, 0.1234, 75.26
956.5, 0.1237, 75.21
957.0, 0.1241, 75.15
957.5, 0.1243, 75.12
958.0, 0.1245, 75.07
958.5, 0.1247, 75.05
959.0, 0.1249, 75.01
959.5, 0.1250, 74.99
960.0, 0.1253, 74.94
960.5, 0.1253, 74.94
961.0, 0.1255, 74.90
961.5, 0.1256, 74.89
962.0, 0.1257, 74.86
962.5, 0.1258, 74.86
963.0, 0.1259, 74.84
963.5, 0.1259, 74.83
964.0, 0.1260, 74.82
964.5, 0.1262, 74.79
965.0, 0.1261, 74.81
965.5, 0.1262, 74.79
966.0, 0.1261, 74.80
966.5, 0.1263, 74.77
967.0, 0.1262, 74.78
967.5, 0.1263, 74.77
968.0, 0.1263, 74.77
968.5, 0.1263, 74.77
969.0, 0.1263, 74.77
969.5, 0.1264, 74.75
970.0, 0.1263, 74.76
970.5, 0.1262, 74.77
971.0, 0.1262, 74.78
971.5, 0.1257, 74.87
972.0, 0.1258, 74.85
972.5, 0.1258, 74.86
973.0, 0.1257, 74.86
973.5, 0.1257, 74.86
974.0, 0.1257, 74.87
974.5, 0.1258, 74.85
975.0, 0.1257, 74.87
975.5, 0.1258, 74.85
976.0, 0.1257, 74.86
976.5, 0.1259, 74.84
977.0, 0.1258, 74.86
977.5, 0.1258, 74.85
978.0, 0.1257, 74.86
978.5, 0.1257, 74.88
979.0, 0.1257, 74.86
979.5, 0.1257, 74.87
980.0, 0.1257, 74.87
980.5, 0.1254, 74.92
981.0, 0.1255, 74.90
981.5, 0.1255, 74.91
982.0, 0.1254, 74.91
982.5, 0.1254, 74.93
983.0, 0.1254, 74.93
983.5, 0.1252, 74.96
984.0, 0.1253, 74.93
984.5, 0.1251, 74.97
985.0, 0.1251, 74.98
985.5, 0.1249, 75.00
986.0, 0.1249, 75.01
986.5, 0.1249, 75.02
987.0, 0.1247, 75.04
987.5, 0.1247, 75.04
988.0, 0.1245, 75.08
988.5, 0.1245, 75.08
989.0, 0.1244, 75.09
989.5, 0.1244, 75.10
990.0, 0.1242, 75.13
990.5, 0.1241, 75.15
991.0, 0.1239, 75.17
991.5, 0.1239, 75.17
992.0, 0.1238, 75.20
992.5, 0.1237, 75.21
993.0, 0.1235, 75.25
993.5, 0.1235, 75.25
994.0, 0.1234, 75.27
994.5, 0.1232, 75.30
995.0, 0.1231, 75.31
995.5, 0.1229, 75.35
996.0, 0.1228, 75.37
996.5, 0.1228, 75.36
997.0, 0.1227, 75.39
997.5, 0.1226, 75.41
998.0, 0.1223, 75.45
998.5, 0.1223, 75.46
999.0, 0.1222, 75.47
999.5, 0.1220, 75.51
1000.0, 0.1218, 75.54
1000.5, 0.1216, 75.58
1001.0, 0.1216, 75.59
1001.5, 0.1214, 75.61
1002.0, 0.1213, 75.64
1002.5, 0.1210, 75.68
1003.0, 0.1209, 75.70
1003.5, 0.1208, 75.71
1004.0, 0.1208, 75.72
1004.5, 0.1205, 75.77
1005.0, 0.1204, 75.79
1005.5, 0.1202, 75.83
1006.0, 0.1201, 75.84
1006.5, 0.1201, 75.85
1007.0, 0.1199, 75.88
1007.5, 0.1197, 75.90
1008.0, 0.1195, 75.94
1008.5, 0.1195, 75.95
1009.0, 0.1193, 75.98
1009.5, 0.1192, 75.99
1010.0, 0.1189, 76.05
1010.5, 0.1188, 76.07
1011.0, 0.1188, 76.07
1011.5, 0.1186, 76.10
1012.0, 0.1184, 76.13
1012.5, 0.1182, 76.18
1013.0, 0.1182, 76.18
1013.5, 0.1180, 76.21
1014.0, 0.1179, 76.22
1014.5, 0.1176, 76.28
1015.0, 0.1175, 76.30
1015.5, 0.1167, 76.44
1016.0, 0.1166, 76.45
1016.5, 0.1166, 76.45
1017.0, 0.1163, 76.50
1017.5, 0.1163, 76.51
1018.0, 0.1161, 76.54
1018.5, 0.1160, 76.55
1019.0, 0.1160, 76.57
1019.5, 0.1158, 76.59
1020.0, 0.1156, 76.64
1020.5, 0.1156, 76.63
1021.0, 0.1154, 76.66
1021.5, 0.1153, 76.68
1022.0, 0.1152, 76.70
1022.5, 0.1151, 76.71
1023.0, 0.1150, 76.73
1023.5, 0.1148, 76.77
1024.0, 0.1148, 76.78
1024.5, 0.1145, 76.82
1025.0, 0.1144, 76.84
1025.5, 0.1142, 76.88
1026.0, 0.1143, 76.87
1026.5, 0.1141, 76.89
1027.0, 0.1139, 76.94
1027.5, 0.1136, 76.98
1028.0, 0.1137, 76.97
1028.5, 0.1135, 76.99
1029.0, 0.1134, 77.03
1029.5, 0.1133, 77.04
1030.0, 0.1130, 77.09
1030.5, 0.1131, 77.08
1031.0, 0.1130, 77.10
1031.5, 0.1128, 77.12
1032.0, 0.1126, 77.16
1032.5, 0.1125, 77.18
1033.0, 0.1124, 77.20
1033.5, 0.1124, 77.20
1034.0, 0.1122, 77.23
1034.5, 0.1121, 77.25
1035.0, 0.1118, 77.30
1035.5, 0.1119, 77.28
1036.0, 0.1118, 77.31
1036.5, 0.1117, 77.32
1037.0, 0.1115, 77.36
1037.5, 0.1113, 77.39
1038.0, 0.1114, 77.37
1038.5, 0.1112, 77.41
1039.0, 0.1110, 77.44
1039.5, 0.1108, 77.49
1040.0, 0.1108, 77.49
1040.5, 0.1107, 77.50
1041.0, 0.1106, 77.51
1041.5, 0.1105, 77.54
1042.0, 0.1102, 77.58
1042.5, 0.1103, 77.57
1043.0, 0.1102, 77.59
1043.5, 0.1101, 77.60
1044.0, 0.1100, 77.62
1044.5, 0.1098, 77.65
1045.0, 0.1098, 77.66
1045.5, 0.1099, 77.65
1046.0, 0.1097, 77.68
1046.5, 0.1088, 77.83
1047.0, 0.1088, 77.84
1047.5, 0.1088, 77.84
1048.0, 0.1089, 77.83
1048.5, 0.1088, 77.84
1049.0, 0.1088, 77.85
1049.5, 0.1086, 77.87
1050.0, 0.1087, 77.86
1050.5, 0.1087, 77.86
1051.0, 0.1085, 77.89
1051.5, 0.1085, 77.89
1052.0, 0.1083, 77.93
1052.5, 0.1085, 77.89
1053.0, 0.1084, 77.91
1053.5, 0.1084, 77.91
1054.0, 0.1083, 77.93
1054.5, 0.1081, 77.96
1055.0, 0.1081, 77.96
1055.5, 0.1081, 77.96
1056.0, 0.1082, 77.95
1056.5, 0.1080, 77.99
1057.0, 0.1081, 77.97
1057.5, 0.1078, 78.01
1058.0, 0.1079, 78.00
1058.5, 0.1077, 78.03
1059.0, 0.1077, 78.03
1059.5, 0.1075, 78.07
1060.0, 0.1078, 78.03
1060.5, 0.1076, 78.06
1061.0, 0.1075, 78.06
1061.5, 0.1072, 78.13
1062.0, 0.1074, 78.10
1062.5, 0.1074, 78.10
1063.0, 0.1072, 78.12
1063.5, 0.1074, 78.10
1064.0, 0.1071, 78.14
1064.5, 0.1073, 78.11
1065.0, 0.1073, 78.10
1065.5, 0.1074, 78.09
1066.0, 0.1072, 78.13
1066.5, 0.1071, 78.14
1067.0, 0.1072, 78.13
1067.5, 0.1072, 78.13
1068.0, 0.1073, 78.11
1068.5, 0.1071, 78.14
1069.0, 0.1072, 78.13
1069.5, 0.1071, 78.14
1070.0, 0.1072, 78.13
1070.5, 0.1070, 78.16
1071.0, 0.1069, 78.18
1071.5, 0.1069, 78.18
1072.0, 0.1070, 78.17
1072.5, 0.1063, 78.28
1073.0, 0.1063, 78.29
1073.5, 0.1063, 78.30
1074.0, 0.1063, 78.29
1074.5, 0.1065, 78.25
1075.0, 0.1065, 78.25
1075.5, 0.1065, 78.26
1076.0, 0.1063, 78.28
1076.5, 0.1065, 78.26
1077.0, 0.1065, 78.25
1077.5, 0.1065, 78.26
1078.0, 0.1066, 78.23
1078.5, 0.1064, 78.26
1079.0, 0.1068, 78.20
1079.5, 0.1066, 78.24
1080.0, 0.1068, 78.20
1080.5, 0.1066, 78.24
1081.0, 0.1066, 78.23
1081.5, 0.1068, 78.20
1082.0, 0.1068, 78.19
1082.5, 0.1069, 78.18
1083.0, 0.1068, 78.20
1083.5, 0.1070, 78.17
1084.0, 0.1070, 78.16
1084.5, 0.1073, 78.11
1085.0, 0.1073, 78.11
1085.5, 0.1075, 78.08
1086.0, 0.1074, 78.10
1086.5, 0.1075, 78.08
1087.0, 0.1076, 78.06
1087.5, 0.1076, 78.06
1088.0, 0.1074, 78.09
1088.5, 0.1074, 78.10
1089.0, 0.1075, 78.08
1089.5, 0.1076, 78.05
1090.0, 0.1077, 78.04
1090.5, 0.1074, 78.10
1091.0, 0.1075, 78.08
1091.5, 0.1074, 78.08
1092.0, 0.1077, 78.04
1092.5, 0.1075, 78.07
1093.0, 0.1076, 78.05
1093.5, 0.1077, 78.04
1094.0, 0.1079, 78.01
1094.5, 0.1080, 77.98
1095.0, 0.1079, 78.00
1095.5, 0.1080, 77.98
1096.0, 0.1084, 77.90
1096.5, 0.1091, 77.79
1097.0, 0.1088, 77.83
1097.5, 0.1108, 77.48
1098.0, 0.1110, 77.45
1098.5, 0.1115, 77.35
1099.0, 0.1116, 77.33
1099.5, 0.1113, 77.39
1100.0, 0.1114, 77.38
