Sample Name, Sample-1
Time, March 10 14:24:35 2023
Operator, Smith
Lamp, 0
Slit,0.0
Scan From, 1100.0nm
Scan To, 190.0nm
Scan Step, 0.5nm
Sample Filter, 5
memo, 
WL(nm), Abs, T%
190.0, 2.5746, 0.27
190.5, 2.6355, 0.23
191.0, 2.5942, 0.25
191.5, 2.5861, 0.26
192.0, 2.5831, 0.26
192.5, 2.5876, 0.26
193.0, 2.6263, 0.24
193.5, 2.7684, 0.17
194.0, 2.8770, 0.13
194.5, 2.9794, 0.10
195.0, 2.9342, 0.12
195.5, 3.0289, 0.09
196.0, 2.9360, 0.12
196.5, 2.8381, 0.15
197.0, 2.8514, 0.14
197.5, 2.7936, 0.16
198.0, 2.9092, 0.12
198.5, 2.9415, 0.11
199.0, 2.9543, 0.11
199.5, 3.1393, 0.07
200.0, 3.1403, 0.07
200.5, 3.1549, 0.07
201.0, 3.0871, 0.08
201.5, 2.9472, 0.11
202.0, 2.9308, 0.12
202.5, 2.9157, 0.12
203.0, 2.9722, 0.11
203.5, 3.0972, 0.08
204.0, 3.0370, 0.09
204.5, 3.2597, 0.05
205.0, 3.1634, 0.07
205.5, 3.2080, 0.06
206.0, 3.0585, 0.09
206.5, 2.9974, 0.10
207.0, 3.0015, 0.10
207.5, 2.9992, 0.10
208.0, 3.0566, 0.09
208.5, 3.1798, 0.07
209.0, 3.1896, 0.06
209.5, 3.2178, 0.06
210.0, 3.1472, 0.07
210.5, 3.1479, 0.07
211.0, 3.0639, 0.09
211.5, 3.0412, 0.09
212.0, 2.9778, 0.11
212.5, 2.9802, 0.10
213.0, 3.0026, 0.10
213.5, 3.0532, 0.09
214.0, 3.0270, 0.09
214.5, 3.0179, 0.10
215.0, 2.9536, 0.11
215.5, 2.9509, 0.11
216.0, 2.8720, 0.13
216.5, 2.8310, 0.15
217.0, 2.8299, 0.15
217.5, 2.8258, 0.15
218.0, 2.7587, 0.17
218.5, 2.7843, 0.16
219.0, 2.7480, 0.18
219.5, 2.7379, 0.18
220.0, 2.6930, 0.20
220.5, 2.6646, 0.22
221.0, 2.6455, 0.23
221.5, 2.5872, 0.26
222.0, 2.5509, 0.28
222.5, 2.5664, 0.27
223.0, 2.5295, 0.30
223.5, 2.5220, 0.30
224.0, 2.4844, 0.33
224.5, 2.4592, 0.35
225.0, 2.4211, 0.38
225.5, 2.3943, 0.40
226.0, 2.3570, 0.44
226.5, 2.3396, 0.46
227.0, 2.2938, 0.51
227.5, 2.2766, 0.53
228.0, 2.2576, 0.55
228.5, 2.2346, 0.58
229.0, 2.1952, 0.64
229.5, 2.1671, 0.68
230.0, 2.1322, 0.74
230.5, 2.0969, 0.80
231.0, 2.0637, 0.86
231.5, 2.0312, 0.93
232.0, 2.0012, 1.00
232.5, 1.9716, 1.07
233.0, 1.9421, 1.14
233.5, 1.9109, 1.23
234.0, 1.8814, 1.31
234.5, 1.8529, 1.40
235.0, 1.8177, 1.52
235.5, 1.7915, 1.62
236.0, 1.7622, 1.73
236.5, 1.7343, 1.84
237.0, 1.7119, 1.94
237.5, 1.6870, 2.06
238.0, 1.6639, 2.17
238.5, 1.6418, 2.28
239.0, 1.6210, 2.39
239.5, 1.6000, 2.51
240.0, 1.5803, 2.63
240.5, 1.5633, 2.73
241.0, 1.5445, 2.85
241.5, 1.5289, 2.96
242.0, 1.5136, 3.06
242.5, 1.4998, 3.16
243.0, 1.4875, 3.25
243.5, 1.4750, 3.35
244.0, 1.4611, 3.46
244.5, 1.4482, 3.56
245.0, 1.4367, 3.66
245.5, 1.4270, 3.74
246.0, 1.4158, 3.84
246.5, 1.4065, 3.92
247.0, 1.3973, 4.01
247.5, 1.3887, 4.09
248.0, 1.3807, 4.16
248.5, 1.3715, 4.25
249.0, 1.3633, 4.33
249.5, 1.3552, 4.41
250.0, 1.3473, 4.50
250.5, 1.3395, 4.58
251.0, 1.3325, 4.65
251.5, 1.3254, 4.73
252.0, 1.3192, 4.79
252.5, 1.3139, 4.85
253.0, 1.3076, 4.92
253.5, 1.3012, 5.00
254.0, 1.2959, 5.06
254.5, 1.2877, 5.16
255.0, 1.2816, 5.23
255.5, 1.2761, 5.30
256.0, 1.2714, 5.35
256.5, 1.2668, 5.41
257.0, 1.2623, 5.47
257.5, 1.2587, 5.51
258.0, 1.2535, 5.58
258.5, 1.2490, 5.64
259.0, 1.2444, 5.70
259.5, 1.2397, 5.76
260.0, 1.2357, 5.81
260.5, 1.2310, 5.88
261.0, 1.2271, 5.93
261.5, 1.2233, 5.98
262.0, 1.2199, 6.03
262.5, 1.2162, 6.08
263.0, 1.2131, 6.12
263.5, 1.2091, 6.18
264.0, 1.2059, 6.22
264.5, 1.2022, 6.28
265.0, 1.1983, 6.33
265.5, 1.1950, 6.38
266.0, 1.1921, 6.43
266.5, 1.1896, 6.46
267.0, 1.1868, 6.50
267.5, 1.1845, 6.54
268.0, 1.1812, 6.59
268.5, 1.1774, 6.65
269.0, 1.1749, 6.68
269.5, 1.1710, 6.75
270.0, 1.1680, 6.79
270.5, 1.1654, 6.83
271.0, 1.1626, 6.88
271.5, 1.1603, 6.91
272.0, 1.1580, 6.95
272.5, 1.1551, 7.00
273.0, 1.1527, 7.04
273.5, 1.1492, 7.09
274.0, 1.1457, 7.15
274.5, 1.1423, 7.21
275.0, 1.1397, 7.25
275.5, 1.1374, 7.29
276.0, 1.1341, 7.34
276.5, 1.1318, 7.38
277.0, 1.1295, 7.42
277.5, 1.1265, 7.47
278.0, 1.1231, 7.53
278.5, 1.1192, 7.60
279.0, 1.1158, 7.66
279.5, 1.1117, 7.73
280.0, 1.1084, 7.79
280.5, 1.1049, 7.85
281.0, 1.1017, 7.91
281.5, 1.0987, 7.97
282.0, 1.0947, 8.04
282.5, 1.0908, 8.11
283.0, 1.0873, 8.18
283.5, 1.0825, 8.27
284.0, 1.0774, 8.37
284.5, 1.0736, 8.44
285.0, 1.0690, 8.53
285.5, 1.0637, 8.63
286.0, 1.0589, 8.73
286.5, 1.0543, 8.82
287.0, 1.0491, 8.93
287.5, 1.0437, 9.04
288.0, 1.0386, 9.15
288.5, 1.0322, 9.28
289.0, 1.0266, 9.41
289.5, 1.0216, 9.52
290.0, 1.0163, 9.63
290.5, 1.0113, 9.74
291.0, 1.0067, 9.85
291.5, 1.0016, 9.96
292.0, 0.9963, 10.09
292.5, 0.9912, 10.20
293.0, 0.9851, 10.35
293.5, 0.9796, 10.48
294.0, 0.9748, 10.60
294.5, 0.9693, 10.73
295.0, 0.9642, 10.86
295.5, 0.9592, 10.98
296.0, 0.9549, 11.09
296.5, 0.9503, 11.21
297.0, 0.9457, 11.33
297.5, 0.9411, 11.45
298.0, 0.9362, 11.58
298.5, 0.9315, 11.71
299.0, 0.9272, 11.82
299.5, 0.9234, 11.93
300.0, 0.9191, 12.05
300.5, 0.9158, 12.14
301.0, 0.9122, 12.24
301.5, 0.9089, 12.33
302.0, 0.9051, 12.44
302.5, 0.9013, 12.55
303.0, 0.8974, 12.66
303.5, 0.8933, 12.78
304.0, 0.8896, 12.89
304.5, 0.8866, 12.98
305.0, 0.8835, 13.08
305.5, 0.8800, 13.18
306.0, 0.8772, 13.27
306.5, 0.8739, 13.37
307.0, 0.8706, 13.47
307.5, 0.8674, 13.57
308.0, 0.8644, 13.66
308.5, 0.8613, 13.76
309.0, 0.8579, 13.87
309.5, 0.8553, 13.95
310.0, 0.8524, 14.05
310.5, 0.8500, 14.13
311.0, 0.8472, 14.22
311.5, 0.8446, 14.30
312.0, 0.8419, 14.39
312.5, 0.8390, 14.49
313.0, 0.8358, 14.60
313.5, 0.8334, 14.68
314.0, 0.8312, 14.75
314.5, 0.8287, 14.84
315.0, 0.8263, 14.92
315.5, 0.8239, 15.00
316.0, 0.8214, 15.09
316.5, 0.8189, 15.17
317.0, 0.8164, 15.26
317.5, 0.8138, 15.35
318.0, 0.8113, 15.44
318.5, 0.8090, 15.53
319.0, 0.8062, 15.62
319.5, 0.8040, 15.70
320.0, 0.8020, 15.78
320.5, 0.7998, 15.86
321.0, 0.7972, 15.95
321.5, 0.7951, 16.03
322.0, 0.7927, 16.12
322.5, 0.7900, 16.22
323.0, 0.7878, 16.30
323.5, 0.7852, 16.40
324.0, 0.7835, 16.46
324.5, 0.7814, 16.54
325.0, 0.7792, 16.62
325.5, 0.7773, 16.70
326.0, 0.7753, 16.78
326.5, 0.7729, 16.87
327.0, 0.7706, 16.96
327.5, 0.7680, 17.06
328.0, 0.7657, 17.15
328.5, 0.7637, 17.23
329.0, 0.7616, 17.31
329.5, 0.7595, 17.40
330.0, 0.7581, 17.46
330.5, 0.7561, 17.53
331.0, 0.7539, 17.62
331.5, 0.7518, 17.71
332.0, 0.7490, 17.82
332.5, 0.7473, 17.89
333.0, 0.7449, 17.99
333.5, 0.7429, 18.08
334.0, 0.7411, 18.15
334.5, 0.7393, 18.23
335.0, 0.7374, 18.31
335.5, 0.7356, 18.38
336.0, 0.7335, 18.47
336.5, 0.7313, 18.56
337.0, 0.7293, 18.65
337.5, 0.7268, 18.76
338.0, 0.7250, 18.84
338.5, 0.7231, 18.92
339.0, 0.7218, 18.98
339.5, 0.7188, 19.11
340.0, 0.7169, 19.19
340.5, 0.7151, 19.27
341.0, 0.7137, 19.33
341.5, 0.7117, 19.42
342.0, 0.7100, 19.50
342.5, 0.7080, 19.59
343.0, 0.7058, 19.69
343.5, 0.7039, 19.77
344.0, 0.7017, 19.87
344.5, 0.7000, 19.95
345.0, 0.6984, 20.03
345.5, 0.6970, 20.09
346.0, 0.6954, 20.17
346.5, 0.6933, 20.26
347.0, 0.6913, 20.36
347.5, 0.6898, 20.43
348.0, 0.6878, 20.52
348.5, 0.6859, 20.61
349.0, 0.6837, 20.71
349.5, 0.6825, 20.78
350.0, 0.6809, 20.85
350.5, 0.6792, 20.93
351.0, 0.6778, 21.00
351.5, 0.6759, 21.09
352.0, 0.6739, 21.19
352.5, 0.6721, 21.28
353.0, 0.6703, 21.37
353.5, 0.6687, 21.45
354.0, 0.6668, 21.54
354.5, 0.6655, 21.60
355.0, 0.6638, 21.69
355.5, 0.6627, 21.74
356.0, 0.6610, 21.83
356.5, 0.6593, 21.91
357.0, 0.6575, 22.00
357.5, 0.6557, 22.10
358.0, 0.6540, 22.18
358.5, 0.6519, 22.29
359.0, 0.6506, 22.35
359.5, 0.6493, 22.42
360.0, 0.6476, 22.51
360.5, 0.6461, 22.59
361.0, 0.6446, 22.67
361.5, 0.6429, 22.75
362.0, 0.6415, 22.83
362.5, 0.6397, 22.92
363.0, 0.6378, 23.02
363.5, 0.6365, 23.09
364.0, 0.6347, 23.19
364.5, 0.6332, 23.27
365.0, 0.6319, 23.34
365.5, 0.6309, 23.40
366.0, 0.6290, 23.50
366.5, 0.6275, 23.58
367.0, 0.6259, 23.67
367.5, 0.6241, 23.76
368.0, 0.6224, 23.85
368.5, 0.6209, 23.94
369.0, 0.6199, 24.00
369.5, 0.6186, 24.07
370.0, 0.6172, 24.14
370.5, 0.6149, 24.27
371.0, 0.6133, 24.36
371.5, 0.6118, 24.45
372.0, 0.6102, 24.54
372.5, 0.6086, 24.63
373.0, 0.6073, 24.70
373.5, 0.6060, 24.78
374.0, 0.6046, 24.85
374.5, 0.6032, 24.93
375.0, 0.6017, 25.02
375.5, 0.6005, 25.09
376.0, 0.5989, 25.18
376.5, 0.5976, 25.26
377.0, 0.5963, 25.34
377.5, 0.5948, 25.42
378.0, 0.5933, 25.51
378.5, 0.5919, 25.59
379.0, 0.5905, 25.67
379.5, 0.5890, 25.76
380.0, 0.5879, 25.83
380.5, 0.5866, 25.91
381.0, 0.5851, 26.00
381.5, 0.5836, 26.08
382.0, 0.5824, 26.16
382.5, 0.5811, 26.24
383.0, 0.5795, 26.33
383.5, 0.5781, 26.42
384.0, 0.5769, 26.49
384.5, 0.5757, 26.56
385.0, 0.5745, 26.64
385.5, 0.5731, 26.73
386.0, 0.5717, 26.81
386.5, 0.5704, 26.89
387.0, 0.5690, 26.98
387.5, 0.5676, 27.06
388.0, 0.5664, 27.14
388.5, 0.5651, 27.22
389.0, 0.5640, 27.29
389.5, 0.5626, 27.38
390.0, 0.5614, 27.45
390.5, 0.5602, 27.53
391.0, 0.5591, 27.60
391.5, 0.5577, 27.69
392.0, 0.5566, 27.76
392.5, 0.5554, 27.84
393.0, 0.5541, 27.92
393.5, 0.5529, 28.00
394.0, 0.5515, 28.09
394.5, 0.5504, 28.16
395.0, 0.5492, 28.23
395.5, 0.5480, 28.32
396.0, 0.5466, 28.40
396.5, 0.5455, 28.48
397.0, 0.5443, 28.55
397.5, 0.5432, 28.63
398.0, 0.5418, 28.72
398.5, 0.5407, 28.80
399.0, 0.5395, 28.87
399.5, 0.5384, 28.95
400.0, 0.5373, 29.02
400.5, 0.5360, 29.10
401.0, 0.5350, 29.18
401.5, 0.5336, 29.27
402.0, 0.5325, 29.34
402.5, 0.5314, 29.42
403.0, 0.5300, 29.51
403.5, 0.5290, 29.58
404.0, 0.5279, 29.66
404.5, 0.5269, 29.73
405.0, 0.5255, 29.82
405.5, 0.5244, 29.90
406.0, 0.5232, 29.98
406.5, 0.5222, 30.05
407.0, 0.5209, 30.13
407.5, 0.5199, 30.21
408.0, 0.5187, 30.29
408.5, 0.5176, 30.36
409.0, 0.5166, 30.44
409.5, 0.5157, 30.50
410.0, 0.5144, 30.59
410.5, 0.5134, 30.66
411.0, 0.5123, 30.74
411.5, 0.5112, 30.82
412.0, 0.5099, 30.91
412.5, 0.5089, 30.98
413.0, 0.5079, 31.05
413.5, 0.5068, 31.13
414.0, 0.5057, 31.21
414.5, 0.5048, 31.28
415.0, 0.5037, 31.35
415.5, 0.5026, 31.44
416.0, 0.5015, 31.51
416.5, 0.5003, 31.60
417.0, 0.4993, 31.68
417.5, 0.4982, 31.76
418.0, 0.4972, 31.83
418.5, 0.4961, 31.91
419.0, 0.4950, 31.99
419.5, 0.4940, 32.06
420.0, 0.4930, 32.14
420.5, 0.4919, 32.22
421.0, 0.4910, 32.29
421.5, 0.4899, 32.36
422.0, 0.4888, 32.45
422.5, 0.4879, 32.52
423.0, 0.4868, 32.60
423.5, 0.4859, 32.67
424.0, 0.4849, 32.75
424.5, 0.4838, 32.83
425.0, 0.4829, 32.89
425.5, 0.4819, 32.97
426.0, 0.4809, 33.04
426.5, 0.4799, 33.12
427.0, 0.4789, 33.19
427.5, 0.4778, 33.28
428.0, 0.4769, 33.35
428.5, 0.4761, 33.41
429.0, 0.4751, 33.49
429.5, 0.4741, 33.57
430.0, 0.4731, 33.65
430.5, 0.4721, 33.72
431.0, 0.4712, 33.79
431.5, 0.4701, 33.88
432.0, 0.4692, 33.95
432.5, 0.4683, 34.02
433.0, 0.4674, 34.09
433.5, 0.4665, 34.16
434.0, 0.4655, 34.24
434.5, 0.4646, 34.31
435.0, 0.4636, 34.38
435.5, 0.4627, 34.46
436.0, 0.4618, 34.53
436.5, 0.4608, 34.61
437.0, 0.4598, 34.69
437.5, 0.4590, 34.76
438.0, 0.4581, 34.82
438.5, 0.4572, 34.90
439.0, 0.4563, 34.97
439.5, 0.4554, 35.05
440.0, 0.4544, 35.12
440.5, 0.4534, 35.20
441.0, 0.4526, 35.27
441.5, 0.4518, 35.34
442.0, 0.4508, 35.42
442.5, 0.4499, 35.49
443.0, 0.4491, 35.56
443.5, 0.4481, 35.63
444.0, 0.4473, 35.70
444.5, 0.4464, 35.78
445.0, 0.4456, 35.85
445.5, 0.4446, 35.92
446.0, 0.4438, 35.99
446.5, 0.4428, 36.07
447.0, 0.4421, 36.13
447.5, 0.4412, 36.21
448.0, 0.4404, 36.28
448.5, 0.4395, 36.35
449.0, 0.4387, 36.41
449.5, 0.4377, 36.50
450.0, 0.4371, 36.55
450.5, 0.4356, 36.67
451.0, 0.4349, 36.74
451.5, 0.4339, 36.82
452.0, 0.4331, 36.89
452.5, 0.4322, 36.96
453.0, 0.4313, 37.04
453.5, 0.4307, 37.09
454.0, 0.4297, 37.18
454.5, 0.4288, 37.26
455.0, 0.4279, 37.34
455.5, 0.4272, 37.40
456.0, 0.4265, 37.46
456.5, 0.4256, 37.53
457.0, 0.4247, 37.61
457.5, 0.4240, 37.67
458.0, 0.4232, 37.74
458.5, 0.4223, 37.82
459.0, 0.4215, 37.89
459.5, 0.4208, 37.95
460.0, 0.4199, 38.03
460.5, 0.4191, 38.10
461.0, 0.4184, 38.16
461.5, 0.4175, 38.24
462.0, 0.4167, 38.31
462.5, 0.4158, 38.39
463.0, 0.4153, 38.44
463.5, 0.4144, 38.52
464.0, 0.4136, 38.59
464.5, 0.4127, 38.66
465.0, 0.4119, 38.74
465.5, 0.4112, 38.80
466.0, 0.4104, 38.87
466.5, 0.4095, 38.95
467.0, 0.4088, 39.01
467.5, 0.4080, 39.08
468.0, 0.4072, 39.16
468.5, 0.4065, 39.22
469.0, 0.4057, 39.29
469.5, 0.4050, 39.35
470.0, 0.4043, 39.42
470.5, 0.4036, 39.49
471.0, 0.4028, 39.55
471.5, 0.4020, 39.63
472.0, 0.4013, 39.70
472.5, 0.4004, 39.77
473.0, 0.3997, 39.83
473.5, 0.3990, 39.90
474.0, 0.3982, 39.98
474.5, 0.3975, 40.04
475.0, 0.3967, 40.11
475.5, 0.3961, 40.17
476.0, 0.3954, 40.24
476.5, 0.3946, 40.31
477.0, 0.3938, 40.38
477.5, 0.3931, 40.45
478.0, 0.3923, 40.52
478.5, 0.3917, 40.58
479.0, 0.3909, 40.65
479.5, 0.3903, 40.71
480.0, 0.3895, 40.78
480.5, 0.3889, 40.84
481.0, 0.3880, 40.92
481.5, 0.3873, 40.99
482.0, 0.3867, 41.05
482.5, 0.3859, 41.12
483.0, 0.3852, 41.19
483.5, 0.3846, 41.25
484.0, 0.3838, 41.33
484.5, 0.3832, 41.38
485.0, 0.3824, 41.46
485.5, 0.3817, 41.52
486.0, 0.3810, 41.59
486.5, 0.3803, 41.66
487.0, 0.3797, 41.72
487.5, 0.3790, 41.78
488.0, 0.3784, 41.84
488.5, 0.3776, 41.92
489.0, 0.3769, 41.98
489.5, 0.3763, 42.04
490.0, 0.3756, 42.12
490.5, 0.3749, 42.18
491.0, 0.3742, 42.25
491.5, 0.3735, 42.31
492.0, 0.3729, 42.38
492.5, 0.3722, 42.44
493.0, 0.3715, 42.51
493.5, 0.3708, 42.58
494.0, 0.3702, 42.64
494.5, 0.3696, 42.70
495.0, 0.3688, 42.77
495.5, 0.3683, 42.83
496.0, 0.3675, 42.90
496.5, 0.3669, 42.97
497.0, 0.3663, 43.02
497.5, 0.3656, 43.09
498.0, 0.3649, 43.16
498.5, 0.3643, 43.22
499.0, 0.3636, 43.29
499.5, 0.3630, 43.35
500.0, 0.3624, 43.41
500.5, 0.3617, 43.48
501.0, 0.3611, 43.54
501.5, 0.3606, 43.60
502.0, 0.3598, 43.67
502.5, 0.3592, 43.73
503.0, 0.3585, 43.80
503.5, 0.3579, 43.87
504.0, 0.3573, 43.93
504.5, 0.3567, 43.99
505.0, 0.3561, 44.04
505.5, 0.3555, 44.10
506.0, 0.3549, 44.17
506.5, 0.3543, 44.23
507.0, 0.3538, 44.28
507.5, 0.3530, 44.36
508.0, 0.3525, 44.41
508.5, 0.3519, 44.47
509.0, 0.3513, 44.53
509.5, 0.3507, 44.60
510.0, 0.3501, 44.66
510.5, 0.3496, 44.71
511.0, 0.3489, 44.79
511.5, 0.3483, 44.84
512.0, 0.3478, 44.90
512.5, 0.3472, 44.96
513.0, 0.3465, 45.03
513.5, 0.3459, 45.09
514.0, 0.3455, 45.14
514.5, 0.3448, 45.21
515.0, 0.3441, 45.28
515.5, 0.3437, 45.33
516.0, 0.3431, 45.39
516.5, 0.3423, 45.47
517.0, 0.3419, 45.51
517.5, 0.3413, 45.57
518.0, 0.3406, 45.64
518.5, 0.3400, 45.70
519.0, 0.3396, 45.75
519.5, 0.3390, 45.82
520.0, 0.3384, 45.88
520.5, 0.3377, 45.95
521.0, 0.3372, 46.01
521.5, 0.3365, 46.08
522.0, 0.3359, 46.14
522.5, 0.3355, 46.19
523.0, 0.3348, 46.26
523.5, 0.3343, 46.31
524.0, 0.3338, 46.37
524.5, 0.3332, 46.43
525.0, 0.3326, 46.49
525.5, 0.3319, 46.57
526.0, 0.3315, 46.62
526.5, 0.3309, 46.68
527.0, 0.3304, 46.73
527.5, 0.3297, 46.80
528.0, 0.3293, 46.85
528.5, 0.3287, 46.91
529.0, 0.3283, 46.96
529.5, 0.3277, 47.02
530.0, 0.3272, 47.08
530.5, 0.3265, 47.15
531.0, 0.3261, 47.20
531.5, 0.3256, 47.25
532.0, 0.3250, 47.31
532.5, 0.3245, 47.37
533.0, 0.3239, 47.43
533.5, 0.3234, 47.49
534.0, 0.3229, 47.55
534.5, 0.3223, 47.61
535.0, 0.3219, 47.66
535.5, 0.3213, 47.72
536.0, 0.3208, 47.78
536.5, 0.3203, 47.83
537.0, 0.3197, 47.89
537.5, 0.3192, 47.95
538.0, 0.3186, 48.02
538.5, 0.3181, 48.07
539.0, 0.3177, 48.12
539.5, 0.3170, 48.19
540.0, 0.3166, 48.24
540.5, 0.3161, 48.30
541.0, 0.3156, 48.35
541.5, 0.3151, 48.41
542.0, 0.3146, 48.47
542.5, 0.3140, 48.53
543.0, 0.3136, 48.57
543.5, 0.3131, 48.63
544.0, 0.3126, 48.68
544.5, 0.3121, 48.75
545.0, 0.3116, 48.80
545.5, 0.3111, 48.85
546.0, 0.3106, 48.91
546.5, 0.3100, 48.97
547.0, 0.3096, 49.02
547.5, 0.3091, 49.08
548.0, 0.3087, 49.13
548.5, 0.3082, 49.19
549.0, 0.3076, 49.24
549.5, 0.3072, 49.30
550.0, 0.3066, 49.36
550.5, 0.3062, 49.41
551.0, 0.3056, 49.47
551.5, 0.3051, 49.53
552.0, 0.3047, 49.58
552.5, 0.3042, 49.64
553.0, 0.3038, 49.68
553.5, 0.3033, 49.74
554.0, 0.3028, 49.80
554.5, 0.3023, 49.85
555.0, 0.3018, 49.91
555.5, 0.3013, 49.96
556.0, 0.3008, 50.02
556.5, 0.3005, 50.06
557.0, 0.2999, 50.13
557.5, 0.2996, 50.16
558.0, 0.2990, 50.23
558.5, 0.2986, 50.28
559.0, 0.2981, 50.34
559.5, 0.2976, 50.40
560.0, 0.2970, 50.46
560.5, 0.2967, 50.51
561.0, 0.2963, 50.55
561.5, 0.2957, 50.62
562.0, 0.2953, 50.66
562.5, 0.2947, 50.73
563.0, 0.2944, 50.77
563.5, 0.2938, 50.83
564.0, 0.2935, 50.88
564.5, 0.2930, 50.93
565.0, 0.2926, 50.98
565.5, 0.2921, 51.04
566.0, 0.2917, 51.08
566.5, 0.2912, 51.15
567.0, 0.2909, 51.18
567.5, 0.2904, 51.24
568.0, 0.2899, 51.30
568.5, 0.2895, 51.35
569.0, 0.2889, 51.41
569.5, 0.2886, 51.45
570.0, 0.2882, 51.50
570.5, 0.2876, 51.57
571.0, 0.2873, 51.61
571.5, 0.2868, 51.66
572.0, 0.2864, 51.72
572.5, 0.2859, 51.77
573.0, 0.2855, 51.82
573.5, 0.2850, 51.87
574.0, 0.2846, 51.93
574.5, 0.2842, 51.98
575.0, 0.2838, 52.02
575.5, 0.2834, 52.08
576.0, 0.2828, 52.14
576.5, 0.2824, 52.19
577.0, 0.2821, 52.23
577.5, 0.2816, 52.29
578.0, 0.2812, 52.34
578.5, 0.2801, 52.47
579.0, 0.2798, 52.51
579.5, 0.2794, 52.56
580.0, 0.2790, 52.60
580.5, 0.2786, 52.66
581.0, 0.2782, 52.70
581.5, 0.2778, 52.75
582.0, 0.2774, 52.79
582.5, 0.2770, 52.84
583.0, 0.2766, 52.89
583.5, 0.2762, 52.94
584.0, 0.2758, 52.99
584.5, 0.2754, 53.04
585.0, 0.2750, 53.09
585.5, 0.2747, 53.13
586.0, 0.2743, 53.17
586.5, 0.2739, 53.22
587.0, 0.2734, 53.28
587.5, 0.2731, 53.33
588.0, 0.2727, 53.37
588.5, 0.2723, 53.42
589.0, 0.2720, 53.46
589.5, 0.2717, 53.49
590.0, 0.2712, 53.56
590.5, 0.2708, 53.60
591.0, 0.2703, 53.66
591.5, 0.2700, 53.71
592.0, 0.2697, 53.74
592.5, 0.2693, 53.79
593.0, 0.2688, 53.85
593.5, 0.2684, 53.90
594.0, 0.2681, 53.94
594.5, 0.2677, 53.99
595.0, 0.2672, 54.05
595.5, 0.2668, 54.09
596.0, 0.2665, 54.14
596.5, 0.2661, 54.19
597.0, 0.2657, 54.24
597.5, 0.2653, 54.29
598.0, 0.2650, 54.33
598.5, 0.2645, 54.39
599.0, 0.2642, 54.42
599.5, 0.2638, 54.48
600.0, 0.2633, 54.53
600.5, 0.2631, 54.56
601.0, 0.2626, 54.63
601.5, 0.2623, 54.66
602.0, 0.2619, 54.71
602.5, 0.2616, 54.75
603.0, 0.2612, 54.80
603.5, 0.2608, 54.86
604.0, 0.2605, 54.90
604.5, 0.2601, 54.94
605.0, 0.2597, 54.99
605.5, 0.2594, 55.04
606.0, 0.2591, 55.07
606.5, 0.2586, 55.13
607.0, 0.2583, 55.18
607.5, 0.2579, 55.23
608.0, 0.2575, 55.27
608.5, 0.2571, 55.32
609.0, 0.2568, 55.36
609.5, 0.2564, 55.41
610.0, 0.2560, 55.46
610.5, 0.2557, 55.50
611.0, 0.2553, 55.56
611.5, 0.2549, 55.60
612.0, 0.2546, 55.65
612.5, 0.2543, 55.69
613.0, 0.2539, 55.73
613.5, 0.2535, 55.78
614.0, 0.2532, 55.82
614.5, 0.2528, 55.87
615.0, 0.2526, 55.90
615.5, 0.2521, 55.96
616.0, 0.2518, 56.01
616.5, 0.2514, 56.05
617.0, 0.2511, 56.10
617.5, 0.2507, 56.14
618.0, 0.2503, 56.20
618.5, 0.2500, 56.23
619.0, 0.2496, 56.28
619.5, 0.2493, 56.33
620.0, 0.2489, 56.37
620.5, 0.2485, 56.43
621.0, 0.2483, 56.46
621.5, 0.2479, 56.51
622.0, 0.2476, 56.55
622.5, 0.2473, 56.59
623.0, 0.2468, 56.65
623.5, 0.2466, 56.68
624.0, 0.2462, 56.73
624.5, 0.2459, 56.77
625.0, 0.2455, 56.82
625.5, 0.2452, 56.87
626.0, 0.2448, 56.91
626.5, 0.2445, 56.95
627.0, 0.2443, 56.98
627.5, 0.2439, 57.03
628.0, 0.2435, 57.08
628.5, 0.2432, 57.12
629.0, 0.2429, 57.17
629.5, 0.2425, 57.21
630.0, 0.2422, 57.26
630.5, 0.2418, 57.30
631.0, 0.2416, 57.34
631.5, 0.2412, 57.39
632.0, 0.2409, 57.43
632.5, 0.2405, 57.48
633.0, 0.2402, 57.52
633.5, 0.2399, 57.56
634.0, 0.2395, 57.60
634.5, 0.2393, 57.64
635.0, 0.2389, 57.69
635.5, 0.2386, 57.74
636.0, 0.2382, 57.78
636.5, 0.2380, 57.81
637.0, 0.2376, 57.86
637.5, 0.2373, 57.91
638.0, 0.2369, 57.95
638.5, 0.2366, 57.99
639.0, 0.2364, 58.03
639.5, 0.2360, 58.07
640.0, 0.2357, 58.12
640.5, 0.2353, 58.17
641.0, 0.2350, 58.21
641.5, 0.2346, 58.26
642.0, 0.2344, 58.29
642.5, 0.2341, 58.33
643.0, 0.2338, 58.37
643.5, 0.2335, 58.41
644.0, 0.2331, 58.46
644.5, 0.2328, 58.51
645.0, 0.2326, 58.54
645.5, 0.2322, 58.58
646.0, 0.2319, 58.63
646.5, 0.2316, 58.67
647.0, 0.2312, 58.72
647.5, 0.2310, 58.74
648.0, 0.2307, 58.79
648.5, 0.2304, 58.83
649.0, 0.2301, 58.87
649.5, 0.2298, 58.92
650.0, 0.2296, 58.94
650.5, 0.2292, 58.99
651.0, 0.2288, 59.05
651.5, 0.2286, 59.07
652.0, 0.2283, 59.11
652.5, 0.2280, 59.16
653.0, 0.2277, 59.20
653.5, 0.2275, 59.23
654.0, 0.2271, 59.28
654.5, 0.2268, 59.32
655.0, 0.2265, 59.36
655.5, 0.2262, 59.41
656.0, 0.2258, 59.45
656.5, 0.2256, 59.48
657.0, 0.2254, 59.51
657.5, 0.2251, 59.56
658.0, 0.2247, 59.61
658.5, 0.2244, 59.66
659.0, 0.2242, 59.68
659.5, 0.2238, 59.73
660.0, 0.2236, 59.76
660.5, 0.2233, 59.81
661.0, 0.2230, 59.83
661.5, 0.2227, 59.88
662.0, 0.2225, 59.92
662.5, 0.2222, 59.96
663.0, 0.2218, 60.01
663.5, 0.2217, 60.03
664.0, 0.2213, 60.08
664.5, 0.2210, 60.12
665.0, 0.2207, 60.16
665.5, 0.2204, 60.21
666.0, 0.2201, 60.24
666.5, 0.2198, 60.28
667.0, 0.2195, 60.32
667.5, 0.2193, 60.36
668.0, 0.2190, 60.40
668.5, 0.2187, 60.44
669.0, 0.2185, 60.47
669.5, 0.2182, 60.50
670.0, 0.2179, 60.55
670.5, 0.2176, 60.59
671.0, 0.2173, 60.63
671.5, 0.2171, 60.66
672.0, 0.2169, 60.69
672.5, 0.2166, 60.73
673.0, 0.2163, 60.78
673.5, 0.2161, 60.80
674.0, 0.2158, 60.84
674.5, 0.2154, 60.89
675.0, 0.2151, 60.94
675.5, 0.2149, 60.97
676.0, 0.2146, 61.01
676.5, 0.2145, 61.03
677.0, 0.2141, 61.08
677.5, 0.2138, 61.12
678.0, 0.2136, 61.15
678.5, 0.2133, 61.19
679.0, 0.2129, 61.24
679.5, 0.2128, 61.27
680.0, 0.2125, 61.31
680.5, 0.2121, 61.36
681.0, 0.2120, 61.38
681.5, 0.2117, 61.42
682.0, 0.2115, 61.45
682.5, 0.2110, 61.51
683.0, 0.2109, 61.53
683.5, 0.2106, 61.58
684.0, 0.2104, 61.60
684.5, 0.2101, 61.64
685.0, 0.2099, 61.67
685.5, 0.2095, 61.73
686.0, 0.2094, 61.74
686.5, 0.2090, 61.80
687.0, 0.2088, 61.83
687.5, 0.2085, 61.87
688.0, 0.2083, 61.91
688.5, 0.2080, 61.94
689.0, 0.2077, 61.98
689.5, 0.2076, 62.01
690.0, 0.2073, 62.05
690.5, 0.2070, 62.09
691.0, 0.2067, 62.13
691.5, 0.2066, 62.15
692.0, 0.2062, 62.20
692.5, 0.2061, 62.22
693.0, 0.2057, 62.27
693.5, 0.2055, 62.30
694.0, 0.2053, 62.33
694.5, 0.2049, 62.38
695.0, 0.2047, 62.41
695.5, 0.2045, 62.45
696.0, 0.2043, 62.48
696.5, 0.2040, 62.52
697.0, 0.2037, 62.55
697.5, 0.2036, 62.58
698.0, 0.2033, 62.61
698.5, 0.2030, 62.66
699.0, 0.2027, 62.70
699.5, 0.2025, 62.73
700.0, 0.2023, 62.76
700.5, 0.2020, 62.80
701.0, 0.2018, 62.84
701.5, 0.2016, 62.87
702.0, 0.2013, 62.90
702.5, 0.2010, 62.95
703.0, 0.2008, 62.98
703.5, 0.2005, 63.02
704.0, 0.2004, 63.04
704.5, 0.2001, 63.08
705.0, 0.1998, 63.12
705.5, 0.1997, 63.14
706.0, 0.1994, 63.18
706.5, 0.1992, 63.21
707.0, 0.1989, 63.26
707.5, 0.1987, 63.28
708.0, 0.1985, 63.32
708.5, 0.1982, 63.35
709.0, 0.1980, 63.39
709.5, 0.1978, 63.42
710.0, 0.1976, 63.45
710.5, 0.1966, 63.58
711.0, 0.1964, 63.62
711.5, 0.1962, 63.66
712.0, 0.1959, 63.70
712.5, 0.1957, 63.72
713.0, 0.1955, 63.75
713.5, 0.1953, 63.78
714.0, 0.1951, 63.81
714.5, 0.1949, 63.85
715.0, 0.1947, 63.87
715.5, 0.1944, 63.91
716.0, 0.1943, 63.93
716.5, 0.1940, 63.97
717.0, 0.1939, 63.99
717.5, 0.1936, 64.04
718.0, 0.1934, 64.06
718.5, 0.1931, 64.10
719.0, 0.1930, 64.13
719.5, 0.1928, 64.15
720.0, 0.1925, 64.19
720.5, 0.1923, 64.22
721.0, 0.1921, 64.25
721.5, 0.1920, 64.27
722.0, 0.1918, 64.30
722.5, 0.1916, 64.33
723.0, 0.1914, 64.36
723.5, 0.1912, 64.39
724.0, 0.1910, 64.42
724.5, 0.1908, 64.44
725.0, 0.1906, 64.47
725.5, 0.1904, 64.51
726.0, 0.1902, 64.53
726.5, 0.1900, 64.56
727.0, 0.1898, 64.60
727.5, 0.1896, 64.63
728.0, 0.1895, 64.65
728.5, 0.1892, 64.69
729.0, 0.1891, 64.70
729.5, 0.1889, 64.73
730.0, 0.1887, 64.76
730.5, 0.1885, 64.78
731.0, 0.1883, 64.82
731.5, 0.1881, 64.84
732.0, 0.1880, 64.86
732.5, 0.1877, 64.91
733.0, 0.1876, 64.92
733.5, 0.1874, 64.95
734.0, 0.1872, 64.98
734.5, 0.1870, 65.01
735.0, 0.1869, 65.03
735.5, 0.1867, 65.05
736.0, 0.1865, 65.09
736.5, 0.1862, 65.13
737.0, 0.1861, 65.15
737.5, 0.1859, 65.17
738.0, 0.1858, 65.20
738.5, 0.1855, 65.24
739.0, 0.1852, 65.28
739.5, 0.1851, 65.30
740.0, 0.1848, 65.34
740.5, 0.1847, 65.36
741.0, 0.1846, 65.38
741.5, 0.1843, 65.42
742.0, 0.1841, 65.45
742.5, 0.1839, 65.48
743.0, 0.1837, 65.50
743.5, 0.1834, 65.55
744.0, 0.1834, 65.56
744.5, 0.1831, 65.59
745.0, 0.1830, 65.62
745.5, 0.1828, 65.65
746.0, 0.1826, 65.68
746.5, 0.1823, 65.72
747.0, 0.1822, 65.74
747.5, 0.1819, 65.77
748.0, 0.1817, 65.81
748.5, 0.1815, 65.84
749.0, 0.1813, 65.87
749.5, 0.1812, 65.89
750.0, 0.1809, 65.94
750.5, 0.1807, 65.96
751.0, 0.1805, 65.99
751.5, 0.1804, 66.01
752.0, 0.1801, 66.05
752.5, 0.1799, 66.08
753.0, 0.1798, 66.10
753.5, 0.1796, 66.13
754.0, 0.1794, 66.16
754.5, 0.1792, 66.20
755.0, 0.1791, 66.21
755.5, 0.1788, 66.25
756.0, 0.1786, 66.28
756.5, 0.1784, 66.31
757.0, 0.1783, 66.34
757.5, 0.1780, 66.37
758.0, 0.1778, 66.41
758.5, 0.1776, 66.44
759.0, 0.1774, 66.47
759.5, 0.1773, 66.49
760.0, 0.1770, 66.53
760.5, 0.1769, 66.55
761.0, 0.1767, 66.58
761.5, 0.1765, 66.61
762.0, 0.1762, 66.65
762.5, 0.1761, 66.67
763.0, 0.1759, 66.70
763.5, 0.1757, 66.73
764.0, 0.1755, 66.75
764.5, 0.1753, 66.78
765.0, 0.1752, 66.81
765.5, 0.1749, 66.84
766.0, 0.1747, 66.87
766.5, 0.1745, 66.91
767.0, 0.1744, 66.93
767.5, 0.1742, 66.96
768.0, 0.1740, 66.99
768.5, 0.1738, 67.02
769.0, 0.1736, 67.05
769.5, 0.1735, 67.06
770.0, 0.1733, 67.10
770.5, 0.1731, 67.13
771.0, 0.1729, 67.16
771.5, 0.1728, 67.18
772.0, 0.1725, 67.22
772.5, 0.1723, 67.25
773.0, 0.1722, 67.27
773.5, 0.1720, 67.30
774.0, 0.1718, 67.32
774.5, 0.1717, 67.35
775.0, 0.1714, 67.39
775.5, 0.1712, 67.42
776.0, 0.1710, 67.46
776.5, 0.1708, 67.49
777.0, 0.1706, 67.51
777.5, 0.1705, 67.54
778.0, 0.1702, 67.57
778.5, 0.1701, 67.59
779.0, 0.1700, 67.61
779.5, 0.1698, 67.64
780.0, 0.1695, 67.68
780.5, 0.1693, 67.72
781.0, 0.1692, 67.73
781.5, 0.1690, 67.77
782.0, 0.1688, 67.79
782.5, 0.1685, 67.84
783.0, 0.1685, 67.84
783.5, 0.1683, 67.87
784.0, 0.1681, 67.90
784.5, 0.1679, 67.93
785.0, 0.1677, 67.96
785.5, 0.1676, 67.98
786.0, 0.1674, 68.02
786.5, 0.1672, 68.05
787.0, 0.1670, 68.07
787.5, 0.1669, 68.09
788.0, 0.1666, 68.14
788.5, 0.1665, 68.16
789.0, 0.1663, 68.19
789.5, 0.1661, 68.22
790.0, 0.1660, 68.24
790.5, 0.1657, 68.28
791.0, 0.1656, 68.30
791.5, 0.1654, 68.33
792.0, 0.1653, 68.35
792.5, 0.1650, 68.39
793.0, 0.1650, 68.39
793.5, 0.1648, 68.42
794.0, 0.1646, 68.46
794.5, 0.1644, 68.48
795.0, 0.1642, 68.51
795.5, 0.1641, 68.53
796.0, 0.1639, 68.57
796.5, 0.1637, 68.59
797.0, 0.1636, 68.62
797.5, 0.1634, 68.64
798.0, 0.1632, 68.68
798.5, 0.1631, 68.69
799.0, 0.1629, 68.73
799.5, 0.1627, 68.76
800.0, 0.1625, 68.78
800.5, 0.1616, 68.93
801.0, 0.1614, 68.96
801.5, 0.1612, 68.99
802.0, 0.1612, 68.99
802.5, 0.1609, 69.03
803.0, 0.1609, 69.04
803.5, 0.1607, 69.06
804.0, 0.1606, 69.09
804.5, 0.1604, 69.12
805.0, 0.1603, 69.14
805.5, 0.1601, 69.17
806.0, 0.1600, 69.18
806.5, 0.1598, 69.21
807.0, 0.1598, 69.22
807.5, 0.1597, 69.24
808.0, 0.1595, 69.27
808.5, 0.1593, 69.29
809.0, 0.1591, 69.33
809.5, 0.1591, 69.33
810.0, 0.1588, 69.37
810.5, 0.1587, 69.39
811.0, 0.1585, 69.42
811.5, 0.1584, 69.44
812.0, 0.1583, 69.45
812.5, 0.1581, 69.48
813.0, 0.1581, 69.49
813.5, 0.1578, 69.54
814.0, 0.1578, 69.54
814.5, 0.1575, 69.58
815.0, 0.1575, 69.59
815.5, 0.1572, 69.63
816.0, 0.1572, 69.63
816.5, 0.1570, 69.66
817.0, 0.1569, 69.69
817.5, 0.1568, 69.70
818.0, 0.1566, 69.73
818.5, 0.1565, 69.75
819.0, 0.1563, 69.78
819.5, 0.1562, 69.79
820.0, 0.1560, 69.82
820.5, 0.1559, 69.84
821.0, 0.1557, 69.87
821.5, 0.1557, 69.87
822.0, 0.1555, 69.90
822.5, 0.1553, 69.93
823.0, 0.1552, 69.96
823.5, 0.1550, 69.98
824.0, 0.1550, 69.99
824.5, 0.1548, 70.02
825.0, 0.1547, 70.04
825.5, 0.1545, 70.06
826.0, 0.1544, 70.08
826.5, 0.1544, 70.08
827.0, 0.1542, 70.11
827.5, 0.1541, 70.12
828.0, 0.1539, 70.16
828.5, 0.1538, 70.18
829.0, 0.1537, 70.19
829.5, 0.1536, 70.21
830.0, 0.1535, 70.23
830.5, 0.1533, 70.25
831.0, 0.1533, 70.26
831.5, 0.1532, 70.28
832.0, 0.1531, 70.29
832.5, 0.1530, 70.31
833.0, 0.1528, 70.35
833.5, 0.1527, 70.35
834.0, 0.1525, 70.39
834.5, 0.1523, 70.41
835.0, 0.1522, 70.43
835.5, 0.1521, 70.45
836.0, 0.1520, 70.46
836.5, 0.1519, 70.49
837.0, 0.1518, 70.51
837.5, 0.1516, 70.53
838.0, 0.1515, 70.56
838.5, 0.1513, 70.58
839.0, 0.1511, 70.61
839.5, 0.1510, 70.63
840.0, 0.1509, 70.64
840.5, 0.1508, 70.67
841.0, 0.1507, 70.68
841.5, 0.1506, 70.70
842.0, 0.1505, 70.72
842.5, 0.1503, 70.75
843.0, 0.1501, 70.78
843.5, 0.1500, 70.79
844.0, 0.1498, 70.83
844.5, 0.1497, 70.84
845.0, 0.1496, 70.87
845.5, 0.1495, 70.88
846.0, 0.1493, 70.91
846.5, 0.1492, 70.92
847.0, 0.1491, 70.94
847.5, 0.1489, 70.98
848.0, 0.1488, 70.98
848.5, 0.1486, 71.02
849.0, 0.1485, 71.04
849.5, 0.1484, 71.06
850.0, 0.1482, 71.08
850.5, 0.1476, 71.19
851.0, 0.1474, 71.21
851.5, 0.1474, 71.22
852.0, 0.1473, 71.24
852.5, 0.1471, 71.27
853.0, 0.1470, 71.28
853.5, 0.1468, 71.32
854.0, 0.1468, 71.32
854.5, 0.1466, 71.35
855.0, 0.1464, 71.38
855.5, 0.1463, 71.40
856.0, 0.1462, 71.42
856.5, 0.1460, 71.44
857.0, 0.1459, 71.47
857.5, 0.1458, 71.48
858.0, 0.1456, 71.51
858.5, 0.1455, 71.53
859.0, 0.1454, 71.56
859.5, 0.1453, 71.56
860.0, 0.1451, 71.59
860.5, 0.1450, 71.61
861.0, 0.1449, 71.63
861.5, 0.1448, 71.65
862.0, 0.1447, 71.67
862.5, 0.1445, 71.69
863.0, 0.1444, 71.71
863.5, 0.1443, 71.73
864.0, 0.1442, 71.75
864.5, 0.1440, 71.78
865.0, 0.1439, 71.79
865.5, 0.1438, 71.82
866.0, 0.1437, 71.84
866.5, 0.1436, 71.85
867.0, 0.1435, 71.86
867.5, 0.1433, 71.89
868.0, 0.1432, 71.91
868.5, 0.1431, 71.93
869.0, 0.1429, 71.96
869.5, 0.1428, 71.98
870.0, 0.1427, 72.00
870.5, 0.1425, 72.02
871.0, 0.1424, 72.04
871.5, 0.1424, 72.05
872.0, 0.1422, 72.07
872.5, 0.1421, 72.09
873.0, 0.1420, 72.11
873.5, 0.1419, 72.14
874.0, 0.1418, 72.14
874.5, 0.1417, 72.17
875.0, 0.1416, 72.18
875.5, 0.1414, 72.21
876.0, 0.1413, 72.23
876.5, 0.1412, 72.24
877.0, 0.1412, 72.25
877.5, 0.1411, 72.27
878.0, 0.1409, 72.30
878.5, 0.1408, 72.30
879.0, 0.1407, 72.33
879.5, 0.1406, 72.35
880.0, 0.1404, 72.38
880.5, 0.1403, 72.40
881.0, 0.1402, 72.41
881.5, 0.1400, 72.44
882.0, 0.1400, 72.44
882.5, 0.1399, 72.46
883.0, 0.1397, 72.49
883.5, 0.1396, 72.51
884.0, 0.1395, 72.52
884.5, 0.1394, 72.54
885.0, 0.1393, 72.56
885.5, 0.1392, 72.58
886.0, 0.1391, 72.59
886.5, 0.1390, 72.61
887.0, 0.1388, 72.64
887.5, 0.1388, 72.65
888.0, 0.1386, 72.67
888.5, 0.1385, 72.69
889.0, 0.1385, 72.70
889.5, 0.1383, 72.73
890.0, 0.1382, 72.74
890.5, 0.1381, 72.77
891.0, 0.1380, 72.77
891.5, 0.1379, 72.79
892.0, 0.1378, 72.81
892.5, 0.1376, 72.84
893.0, 0.1376, 72.85
893.5, 0.1375, 72.87
894.0, 0.1374, 72.89
894.5, 0.1373, 72.90
895.0, 0.1371, 72.93
895.5, 0.1371, 72.93
896.0, 0.1370, 72.95
896.5, 0.1368, 72.97
897.0, 0.1367, 72.99
897.5, 0.1367, 73.00
898.0, 0.1365, 73.03
898.5, 0.1364, 73.05
899.0, 0.1363, 73.06
899.5, 0.1362, 73.08
900.0, 0.1361, 73.10
900.5, 0.1360, 73.12
901.0, 0.1360, 73.12
901.5, 0.1358, 73.15
902.0, 0.1358, 73.15
902.5, 0.1356, 73.18
903.0, 0.1355, 73.20
903.5, 0.1354, 73.21
904.0, 0.1353, 73.23
904.5, 0.1352, 73.25
905.0, 0.1351, 73.26
905.5, 0.1351, 73.27
906.0, 0.1349, 73.29
906.5, 0.1349, 73.30
907.0, 0.1347, 73.33
907.5, 0.1347, 73.34
908.0, 0.1346, 73.36
908.5, 0.1345, 73.37
909.0, 0.1344, 73.39
909.5, 0.1343, 73.40
910.0, 0.1341, 73.43
910.5, 0.1341, 73.43
911.0, 0.1341, 73.44
911.5, 0.1339, 73.46
912.0, 0.1338, 73.48
912.5, 0.1338, 73.49
913.0, 0.1337, 73.50
913.5, 0.1336, 73.51
914.0, 0.1336, 73.52
914.5, 0.1335, 73.54
915.0, 0.1334, 73.55
915.5, 0.1333, 73.57
916.0, 0.1333, 73.57
916.5, 0.1332, 73.59
917.0, 0.1330, 73.62
917.5, 0.1330, 73.61
918.0, 0.1329, 73.64
918.5, 0.1329, 73.63
919.0, 0.1327, 73.67
919.5, 0.1328, 73.65
920.0, 0.1327, 73.67
920.5, 0.1327, 73.68
921.0, 0.1326, 73.69
921.5, 0.1326, 73.69
922.0, 0.1326, 73.70
922.5, 0.1325, 73.71
923.0, 0.1325, 73.71
923.5, 0.1324, 73.72
924.0, 0.1324, 73.72
924.5, 0.1323, 73.73
925.0, 0.1324, 73.73
925.5, 0.1323, 73.75
926.0, 0.1322, 73.75
926.5, 0.1323, 73.75
927.0, 0.1323, 73.75
927.5, 0.1323, 73.74
928.0, 0.1322, 73.76
928.5, 0.1323, 73.75
929.0, 0.1322, 73.76
929.5, 0.1323, 73.74
930.0, 0.1322, 73.75
930.5, 0.1323, 73.73
931.0, 0.1323, 73.73
931.5, 0.1323, 73.74
932.0, 0.1325, 73.71
932.5, 0.1324, 73.73
933.0, 0.1324, 73.72
933.5, 0.1325, 73.71
934.0, 0.1325, 73.71
934.5, 0.1325, 73.70
935.0, 0.1326, 73.68
935.5, 0.1326, 73.69
936.0, 0.1327, 73.67
936.5, 0.1327, 73.67
937.0, 0.1328, 73.65
937.5, 0.1329, 73.63
938.0, 0.1330, 73.62
938.5, 0.1330, 73.63
939.0, 0.1331, 73.60
939.5, 0.1333, 73.58
940.0, 0.1333, 73.57
940.5, 0.1334, 73.55
941.0, 0.1334, 73.55
941.5, 0.1336, 73.52
942.0, 0.1337, 73.51
942.5, 0.1338, 73.48
943.0, 0.1338, 73.48
943.5, 0.1339, 73.47
944.0, 0.1340, 73.45
944.5, 0.1343, 73.41
945.0, 0.1343, 73.39
945.5, 0.1344, 73.38
946.0, 0.1344, 73.38
946.5, 0.1347, 73.33
947.0, 0.1348, 73.31
947.5, 0.1350, 73.29
948.0, 0.1351, 73.27
948.5, 0.1353, 73.24
949.0, 0.1355, 73.20
949.5, 0.1357, 73.17
950.0, 0.1360, 73.12
950.5, 0.1361, 73.10
951.0, 0.1364, 73.05
951.5, 0.1366, 73.01
952.0, 0.1369, 72.97
952.5, 0.1373, 72.90
953.0, 0.1374, 72.88
953.5, 0.1376, 72.84
954.0, 0.1379, 72.79
954.5, 0.1382, 72.74
955.0, 0.1385, 72.69
955.5, 0.1388, 72.65
956.0, 0.1389, 72.62
956.5, 0.1391, 72.59
957.0, 0.1394, 72.55
957.5, 0.1396, 72.51
958.0, 0.1397, 72.49
958.5, 0.1398, 72.47
959.0, 0.1401, 72.43
959.5, 0.1401, 72.43
960.0, 0.1402, 72.40
960.5, 0.1402, 72.41
961.0, 0.1404, 72.37
961.5, 0.1404, 72.38
962.0, 0.1406, 72.35
962.5, 0.1403, 72.39
963.0, 0.1404, 72.37
963.5, 0.1405, 72.37
964.0, 0.1404, 72.38
964.5, 0.1405, 72.35
965.0, 0.1403, 72.40
965.5, 0.1403, 72.39
966.0, 0.1402, 72.41
966.5, 0.1402, 72.41
967.0, 0.1401, 72.42
967.5, 0.1401, 72.43
968.0, 0.1401, 72.42
968.5, 0.1399, 72.46
969.0, 0.1400, 72.44
969.5, 0.1399, 72.46
970.0, 0.1398, 72.48
970.5, 0.1397, 72.49
971.0, 0.1396, 72.51
971.5, 0.1389, 72.62
972.0, 0.1389, 72.63
972.5, 0.1388, 72.64
973.0, 0.1387, 72.66
973.5, 0.1387, 72.65
974.0, 0.1386, 72.67
974.5, 0.1387, 72.67
975.0, 0.1384, 72.71
975.5, 0.1384, 72.70
976.0, 0.1384, 72.72
976.5, 0.1383, 72.73
977.0, 0.1381, 72.75
977.5, 0.1381, 72.77
978.0, 0.1380, 72.78
978.5, 0.1378, 72.81
979.0, 0.1379, 72.80
979.5, 0.1377, 72.83
980.0, 0.1376, 72.85
980.5, 0.1374, 72.89
981.0, 0.1372, 72.91
981.5, 0.1372, 72.91
982.0, 0.1370, 72.95
982.5, 0.1369, 72.96
983.0, 0.1367, 73.00
983.5, 0.1366, 73.02
984.0, 0.1366, 73.02
984.5, 0.1363, 73.06
985.0, 0.1363, 73.07
985.5, 0.1361, 73.10
986.0, 0.1359, 73.13
986.5, 0.1358, 73.15
987.0, 0.1356, 73.19
987.5, 0.1354, 73.22
988.0, 0.1352, 73.25
988.5, 0.1351, 73.27
989.0, 0.1350, 73.29
989.5, 0.1347, 73.33
990.0, 0.1346, 73.36
990.5, 0.1344, 73.39
991.0, 0.1342, 73.42
991.5, 0.1340, 73.45
992.0, 0.1339, 73.47
992.5, 0.1337, 73.50
993.0, 0.1334, 73.54
993.5, 0.1333, 73.56
994.0, 0.1332, 73.59
994.5, 0.1329, 73.63
995.0, 0.1327, 73.67
995.5, 0.1325, 73.70
996.0, 0.1324, 73.73
996.5, 0.1321, 73.77
997.0, 0.1320, 73.80
997.5, 0.1318, 73.83
998.0, 0.1316, 73.85
998.5, 0.1315, 73.88
999.0, 0.1312, 73.93
999.5, 0.1311, 73.95
1000.0, 0.1307, 74.01
1000.5, 0.1306, 74.03
1001.0, 0.1303, 74.08
1001.5, 0.1301, 74.11
1002.0, 0.1299, 74.14
1002.5, 0.1297, 74.19
1003.0, 0.1295, 74.22
1003.5, 0.1294, 74.24
1004.0, 0.1292, 74.27
1004.5, 0.1289, 74.32
1005.0, 0.1286, 74.37
1005.5, 0.1284, 74.40
1006.0, 0.1283, 74.43
1006.5, 0.1280, 74.47
1007.0, 0.1280, 74.47
1007.5, 0.1276, 74.54
1008.0, 0.1275, 74.55
1008.5, 0.1273, 74.59
1009.0, 0.1270, 74.64
1009.5, 0.1270, 74.65
1010.0, 0.1266, 74.71
1010.5, 0.1265, 74.73
1011.0, 0.1263, 74.77
1011.5, 0.1260, 74.82
1012.0, 0.1259, 74.84
1012.5, 0.1256, 74.88
1013.0, 0.1255, 74.90
1013.5, 0.1252, 74.96
1014.0, 0.1251, 74.97
1014.5, 0.1247, 75.05
1015.0, 0.1245, 75.08
1015.5, 0.1238, 75.20
1016.0, 0.1235, 75.25
1016.5, 0.1234, 75.27
1017.0, 0.1232, 75.31
1017.5, 0.1231, 75.32
1018.0, 0.1229, 75.35
1018.5, 0.1226, 75.40
1019.0, 0.1226, 75.40
1019.5, 0.1223, 75.46
1020.0, 0.1221, 75.49
1020.5, 0.1219, 75.52
1021.0, 0.1217, 75.57
1021.5, 0.1216, 75.58
1022.0, 0.1215, 75.59
1022.5, 0.1215, 75.60
1023.0, 0.1212, 75.65
1023.5, 0.1210, 75.68
1024.0, 0.1208, 75.71
1024.5, 0.1206, 75.76
1025.0, 0.1205, 75.77
1025.5, 0.1201, 75.83
1026.0, 0.1200, 75.85
1026.5, 0.1198, 75.88
1027.0, 0.1197, 75.91
1027.5, 0.1195, 75.95
1028.0, 0.1193, 75.98
1028.5, 0.1191, 76.01
1029.0, 0.1189, 76.04
1029.5, 0.1188, 76.07
1030.0, 0.1186, 76.10
1030.5, 0.1184, 76.14
1031.0, 0.1183, 76.16
1031.5, 0.1181, 76.18
1032.0, 0.1180, 76.21
1032.5, 0.1179, 76.23
1033.0, 0.1176, 76.27
1033.5, 0.1176, 76.28
1034.0, 0.1172, 76.34
1034.5, 0.1172, 76.34
1035.0, 0.1169, 76.40
1035.5, 0.1167, 76.43
1036.0, 0.1167, 76.44
1036.5, 0.1165, 76.47
1037.0, 0.1165, 76.48
1037.5, 0.1161, 76.54
1038.0, 0.1161, 76.55
1038.5, 0.1159, 76.58
1039.0, 0.1156, 76.64
1039.5, 0.1155, 76.65
1040.0, 0.1154, 76.67
1040.5, 0.1152, 76.69
1041.0, 0.1150, 76.73
1041.5, 0.1150, 76.74
1042.0, 0.1148, 76.78
1042.5, 0.1147, 76.79
1043.0, 0.1145, 76.83
1043.5, 0.1145, 76.83
1044.0, 0.1142, 76.88
1044.5, 0.1142, 76.88
1045.0, 0.1139, 76.94
1045.5, 0.1139, 76.93
1046.0, 0.1138, 76.95
1046.5, 0.1129, 77.11
1047.0, 0.1129, 77.10
1047.5, 0.1128, 77.13
1048.0, 0.1127, 77.14
1048.5, 0.1126, 77.16
1049.0, 0.1125, 77.18
1049.5, 0.1124, 77.19
1050.0, 0.1123, 77.21
1050.5, 0.1122, 77.22
1051.0, 0.1122, 77.23
1051.5, 0.1122, 77.23
1052.0, 0.1121, 77.25
1052.5, 0.1120, 77.27
1053.0, 0.1119, 77.29
1053.5, 0.1118, 77.31
1054.0, 0.1117, 77.33
1054.5, 0.1116, 77.35
1055.0, 0.1114, 77.37
1055.5, 0.1114, 77.37
1056.0, 0.1115, 77.36
1056.5, 0.1114, 77.38
1057.0, 0.1113, 77.39
1057.5, 0.1111, 77.43
1058.0, 0.1109, 77.46
1058.5, 0.1107, 77.50
1059.0, 0.1107, 77.50
1059.5, 0.1107, 77.51
1060.0, 0.1106, 77.51
1060.5, 0.1104, 77.55
1061.0, 0.1104, 77.56
1061.5, 0.1103, 77.58
1062.0, 0.1103, 77.57
1062.5, 0.1101, 77.60
1063.0, 0.1100, 77.62
1063.5, 0.1099, 77.63
1064.0, 0.1098, 77.65
1064.5, 0.1099, 77.65
1065.0, 0.1097, 77.67
1065.5, 0.1099, 77.65
1066.0, 0.1097, 77.67
1066.5, 0.1097, 77.68
1067.0, 0.1097, 77.69
1067.5, 0.1094, 77.72
1068.0, 0.1094, 77.74
1068.5, 0.1093, 77.75
1069.0, 0.1093, 77.75
1069.5, 0.1091, 77.78
1070.0, 0.1092, 77.77
1070.5, 0.1091, 77.78
1071.0, 0.1092, 77.77
1071.5, 0.1091, 77.79
1072.0, 0.1092, 77.77
1072.5, 0.1083, 77.93
1073.0, 0.1082, 77.95
1073.5, 0.1082, 77.96
1074.0, 0.1082, 77.95
1074.5, 0.1081, 77.96
1075.0, 0.1081, 77.96
1075.5, 0.1082, 77.95
1076.0, 0.1082, 77.95
1076.5, 0.1082, 77.94
1077.0, 0.1083, 77.94
1077.5, 0.1080, 77.98
1078.0, 0.1080, 77.98
1078.5, 0.1080, 77.99
1079.0, 0.1081, 77.97
1079.5, 0.1081, 77.96
1080.0, 0.1081, 77.96
1080.5, 0.1081, 77.96
1081.0, 0.1082, 77.95
1081.5, 0.1083, 77.93
1082.0, 0.1083, 77.93
1082.5, 0.1084, 77.91
1083.0, 0.1083, 77.93
1083.5, 0.1086, 77.87
1084.0, 0.1090, 77.80
1084.5, 0.1096, 77.70
1085.0, 0.1101, 77.60
1085.5, 0.1104, 77.55
1086.0, 0.1104, 77.55
1086.5, 0.1104, 77.55
1087.0, 0.1104, 77.55
1087.5, 0.1101, 77.61
1088.0, 0.1098, 77.65
1088.5, 0.1098, 77.66
1089.0, 0.1099, 77.64
1089.5, 0.1101, 77.61
1090.0, 0.1101, 77.61
1090.5, 0.1100, 77.63
1091.0, 0.1099, 77.63
1091.5, 0.1100, 77.62
1092.0, 0.1100, 77.63
1092.5, 0.1097, 77.67
1093.0, 0.1099, 77.64
1093.5, 0.1100, 77.62
1094.0, 0.1102, 77.59
1094.5, 0.1105, 77.54
1095.0, 0.1108, 77.49
1095.5, 0.1114, 77.37
1096.0, 0.1121, 77.24
1096.5, 0.1135, 77.00
1097.0, 0.1146, 76.80
1097.5, 0.1183, 76.16
1098.0, 0.1205, 75.77
1098.5, 0.1230, 75.34
1099.0, 0.1248, 75.03
1099.5, 0.1256, 74.89
1100.0, 0.1259, 74.83
