Sample Name, Sample-3
Time, March 10 14:41:07 2023
Operator, Smith
Lamp, 0
Slit,0.0
Scan From, 1100.0nm
Scan To, 190.0nm
Scan Step, 0.5nm
Sample Filter, 5
memo, 
WL(nm), Abs, T%
190.0, 1.7037, 1.98
190.5, 1.7490, 1.78
191.0, 1.7658, 1.71
191.5, 1.7870, 1.63
192.0, 1.7928, 1.61
192.5, 1.8110, 1.55
193.0, 1.8358, 1.46
193.5, 1.8634, 1.37
194.0, 1.8799, 1.32
194.5, 1.8921, 1.28
195.0, 1.8897, 1.29
195.5, 1.8868, 1.30
196.0, 1.8799, 1.32
196.5, 1.8623, 1.37
197.0, 1.8501, 1.41
197.5, 1.8372, 1.45
198.0, 1.8336, 1.47
198.5, 1.8212, 1.51
199.0, 1.8096, 1.55
199.5, 1.7873, 1.63
200.0, 1.7656, 1.72
200.5, 1.7365, 1.83
201.0, 1.7066, 1.97
201.5, 1.6751, 2.11
202.0, 1.6485, 2.25
202.5, 1.6147, 2.43
203.0, 1.5842, 2.61
203.5, 1.5580, 2.77
204.0, 1.5300, 2.95
204.5, 1.4991, 3.17
205.0, 1.4676, 3.41
205.5, 1.4374, 3.65
206.0, 1.4044, 3.94
206.5, 1.3738, 4.23
207.0, 1.3434, 4.54
207.5, 1.3159, 4.83
208.0, 1.2888, 5.14
208.5, 1.2638, 5.45
209.0, 1.2391, 5.77
209.5, 1.2141, 6.11
210.0, 1.1893, 6.47
210.5, 1.1663, 6.82
211.0, 1.1448, 7.17
211.5, 1.1231, 7.53
212.0, 1.1031, 7.89
212.5, 1.0847, 8.23
213.0, 1.0663, 8.58
213.5, 1.0492, 8.93
214.0, 1.0319, 9.29
214.5, 1.0136, 9.69
215.0, 0.9971, 10.07
215.5, 0.9813, 10.44
216.0, 0.9659, 10.82
216.5, 0.9517, 11.18
217.0, 0.9381, 11.53
217.5, 0.9247, 11.89
218.0, 0.9124, 12.24
218.5, 0.9001, 12.59
219.0, 0.8876, 12.95
219.5, 0.8754, 13.32
220.0, 0.8631, 13.70
220.5, 0.8520, 14.06
221.0, 0.8408, 14.43
221.5, 0.8298, 14.80
222.0, 0.8199, 15.14
222.5, 0.8096, 15.50
223.0, 0.7996, 15.86
223.5, 0.7904, 16.20
224.0, 0.7800, 16.60
224.5, 0.7703, 16.97
225.0, 0.7610, 17.34
225.5, 0.7509, 17.74
226.0, 0.7414, 18.14
226.5, 0.7317, 18.55
227.0, 0.7220, 18.97
227.5, 0.7130, 19.37
228.0, 0.7043, 19.76
228.5, 0.6950, 20.19
229.0, 0.6849, 20.66
229.5, 0.6752, 21.12
230.0, 0.6655, 21.60
230.5, 0.6557, 22.09
231.0, 0.6460, 22.60
231.5, 0.6355, 23.15
232.0, 0.6260, 23.66
232.5, 0.6163, 24.20
233.0, 0.6068, 24.73
233.5, 0.5970, 25.29
234.0, 0.5876, 25.85
234.5, 0.5780, 26.43
235.0, 0.5690, 26.98
235.5, 0.5604, 27.52
236.0, 0.5519, 28.06
236.5, 0.5439, 28.58
237.0, 0.5360, 29.11
237.5, 0.5283, 29.63
238.0, 0.5210, 30.13
238.5, 0.5139, 30.63
239.0, 0.5072, 31.10
239.5, 0.5010, 31.55
240.0, 0.4949, 32.00
240.5, 0.4893, 32.41
241.0, 0.4839, 32.82
241.5, 0.4789, 33.20
242.0, 0.4742, 33.56
242.5, 0.4697, 33.91
243.0, 0.4654, 34.25
243.5, 0.4609, 34.60
244.0, 0.4569, 34.93
244.5, 0.4529, 35.24
245.0, 0.4492, 35.55
245.5, 0.4456, 35.84
246.0, 0.4422, 36.12
246.5, 0.4392, 36.38
247.0, 0.4362, 36.62
247.5, 0.4333, 36.87
248.0, 0.4305, 37.11
248.5, 0.4277, 37.35
249.0, 0.4249, 37.59
249.5, 0.4223, 37.82
250.0, 0.4196, 38.05
250.5, 0.4171, 38.28
251.0, 0.4147, 38.49
251.5, 0.4123, 38.69
252.0, 0.4103, 38.88
252.5, 0.4082, 39.06
253.0, 0.4062, 39.25
253.5, 0.4039, 39.45
254.0, 0.4020, 39.63
254.5, 0.3991, 39.89
255.0, 0.3972, 40.07
255.5, 0.3952, 40.25
256.0, 0.3935, 40.41
256.5, 0.3919, 40.56
257.0, 0.3902, 40.72
257.5, 0.3889, 40.85
258.0, 0.3872, 41.00
258.5, 0.3856, 41.16
259.0, 0.3839, 41.31
259.5, 0.3823, 41.47
260.0, 0.3810, 41.60
260.5, 0.3794, 41.74
261.0, 0.3780, 41.88
261.5, 0.3769, 41.99
262.0, 0.3756, 42.11
262.5, 0.3741, 42.25
263.0, 0.3729, 42.37
263.5, 0.3715, 42.51
264.0, 0.3702, 42.64
264.5, 0.3689, 42.77
265.0, 0.3678, 42.87
265.5, 0.3666, 42.99
266.0, 0.3657, 43.09
266.5, 0.3646, 43.19
267.0, 0.3637, 43.28
267.5, 0.3626, 43.39
268.0, 0.3615, 43.51
268.5, 0.3603, 43.63
269.0, 0.3592, 43.73
269.5, 0.3582, 43.83
270.0, 0.3571, 43.95
270.5, 0.3560, 44.05
271.0, 0.3552, 44.13
271.5, 0.3544, 44.22
272.0, 0.3535, 44.31
272.5, 0.3525, 44.41
273.0, 0.3514, 44.53
273.5, 0.3504, 44.63
274.0, 0.3493, 44.74
274.5, 0.3484, 44.83
275.0, 0.3474, 44.93
275.5, 0.3465, 45.03
276.0, 0.3456, 45.12
276.5, 0.3447, 45.22
277.0, 0.3438, 45.31
277.5, 0.3427, 45.42
278.0, 0.3415, 45.55
278.5, 0.3403, 45.68
279.0, 0.3392, 45.80
279.5, 0.3381, 45.91
280.0, 0.3371, 46.02
280.5, 0.3360, 46.13
281.0, 0.3349, 46.25
281.5, 0.3339, 46.35
282.0, 0.3327, 46.48
282.5, 0.3316, 46.61
283.0, 0.3302, 46.75
283.5, 0.3287, 46.91
284.0, 0.3274, 47.05
284.5, 0.3261, 47.20
285.0, 0.3247, 47.35
285.5, 0.3233, 47.50
286.0, 0.3218, 47.66
286.5, 0.3203, 47.83
287.0, 0.3188, 47.99
287.5, 0.3171, 48.19
288.0, 0.3155, 48.36
288.5, 0.3137, 48.56
289.0, 0.3122, 48.73
289.5, 0.3106, 48.91
290.0, 0.3092, 49.06
290.5, 0.3078, 49.22
291.0, 0.3065, 49.38
291.5, 0.3049, 49.56
292.0, 0.3033, 49.74
292.5, 0.3016, 49.94
293.0, 0.2999, 50.12
293.5, 0.2983, 50.32
294.0, 0.2969, 50.48
294.5, 0.2953, 50.66
295.0, 0.2939, 50.83
295.5, 0.2925, 50.99
296.0, 0.2911, 51.15
296.5, 0.2899, 51.30
297.0, 0.2885, 51.46
297.5, 0.2870, 51.64
298.0, 0.2855, 51.83
298.5, 0.2842, 51.98
299.0, 0.2830, 52.12
299.5, 0.2818, 52.26
300.0, 0.2808, 52.39
300.5, 0.2798, 52.51
301.0, 0.2787, 52.64
301.5, 0.2774, 52.79
302.0, 0.2764, 52.92
302.5, 0.2751, 53.07
303.0, 0.2740, 53.21
303.5, 0.2729, 53.35
304.0, 0.2719, 53.47
304.5, 0.2709, 53.59
305.0, 0.2700, 53.71
305.5, 0.2692, 53.81
306.0, 0.2682, 53.92
306.5, 0.2672, 54.05
307.0, 0.2662, 54.18
307.5, 0.2651, 54.31
308.0, 0.2642, 54.43
308.5, 0.2633, 54.54
309.0, 0.2624, 54.65
309.5, 0.2615, 54.76
310.0, 0.2609, 54.84
310.5, 0.2600, 54.95
311.0, 0.2591, 55.06
311.5, 0.2583, 55.16
312.0, 0.2573, 55.29
312.5, 0.2565, 55.40
313.0, 0.2557, 55.50
313.5, 0.2548, 55.62
314.0, 0.2542, 55.69
314.5, 0.2535, 55.79
315.0, 0.2530, 55.85
315.5, 0.2522, 55.95
316.0, 0.2515, 56.04
316.5, 0.2506, 56.15
317.0, 0.2498, 56.26
317.5, 0.2488, 56.39
318.0, 0.2482, 56.46
318.5, 0.2475, 56.56
319.0, 0.2468, 56.65
319.5, 0.2462, 56.73
320.0, 0.2456, 56.81
320.5, 0.2450, 56.88
321.0, 0.2442, 57.00
321.5, 0.2433, 57.10
322.0, 0.2426, 57.20
322.5, 0.2418, 57.31
323.0, 0.2412, 57.39
323.5, 0.2405, 57.48
324.0, 0.2400, 57.54
324.5, 0.2395, 57.61
325.0, 0.2389, 57.69
325.5, 0.2383, 57.77
326.0, 0.2375, 57.88
326.5, 0.2366, 58.00
327.0, 0.2358, 58.10
327.5, 0.2352, 58.18
328.0, 0.2346, 58.26
328.5, 0.2341, 58.33
329.0, 0.2335, 58.42
329.5, 0.2330, 58.48
330.0, 0.2324, 58.56
330.5, 0.2319, 58.63
331.0, 0.2311, 58.74
331.5, 0.2303, 58.85
332.0, 0.2295, 58.95
332.5, 0.2289, 59.03
333.0, 0.2285, 59.09
333.5, 0.2279, 59.17
334.0, 0.2274, 59.24
334.5, 0.2269, 59.31
335.0, 0.2264, 59.37
335.5, 0.2256, 59.48
336.0, 0.2249, 59.58
336.5, 0.2241, 59.69
337.0, 0.2236, 59.75
337.5, 0.2231, 59.83
338.0, 0.2225, 59.91
338.5, 0.2221, 59.96
339.0, 0.2217, 60.02
339.5, 0.2208, 60.14
340.0, 0.2203, 60.22
340.5, 0.2199, 60.27
341.0, 0.2193, 60.35
341.5, 0.2186, 60.45
342.0, 0.2178, 60.56
342.5, 0.2171, 60.65
343.0, 0.2167, 60.72
343.5, 0.2165, 60.75
344.0, 0.2159, 60.83
344.5, 0.2155, 60.88
345.0, 0.2150, 60.96
345.5, 0.2144, 61.04
346.0, 0.2139, 61.11
346.5, 0.2131, 61.22
347.0, 0.2123, 61.34
347.5, 0.2119, 61.40
348.0, 0.2115, 61.44
348.5, 0.2110, 61.52
349.0, 0.2106, 61.58
349.5, 0.2103, 61.61
350.0, 0.2097, 61.70
350.5, 0.2092, 61.78
351.0, 0.2086, 61.86
351.5, 0.2079, 61.96
352.0, 0.2072, 62.05
352.5, 0.2067, 62.13
353.0, 0.2063, 62.18
353.5, 0.2061, 62.21
354.0, 0.2056, 62.29
354.5, 0.2051, 62.35
355.0, 0.2046, 62.43
355.5, 0.2040, 62.51
356.0, 0.2035, 62.59
356.5, 0.2028, 62.69
357.0, 0.2022, 62.78
357.5, 0.2018, 62.84
358.0, 0.2014, 62.89
358.5, 0.2009, 62.96
359.0, 0.2008, 62.99
359.5, 0.2000, 63.09
360.0, 0.1996, 63.15
360.5, 0.1991, 63.23
361.0, 0.1985, 63.32
361.5, 0.1979, 63.40
362.0, 0.1975, 63.46
362.5, 0.1971, 63.52
363.0, 0.1968, 63.56
363.5, 0.1964, 63.63
364.0, 0.1961, 63.67
364.5, 0.1955, 63.75
365.0, 0.1949, 63.84
365.5, 0.1943, 63.93
366.0, 0.1939, 63.99
366.5, 0.1933, 64.07
367.0, 0.1928, 64.15
367.5, 0.1925, 64.19
368.0, 0.1922, 64.23
368.5, 0.1919, 64.29
369.0, 0.1916, 64.33
369.5, 0.1911, 64.40
370.0, 0.1906, 64.47
370.5, 0.1901, 64.55
371.0, 0.1895, 64.64
371.5, 0.1891, 64.70
372.0, 0.1886, 64.77
372.5, 0.1884, 64.80
373.0, 0.1882, 64.84
373.5, 0.1879, 64.88
374.0, 0.1873, 64.96
374.5, 0.1869, 65.03
375.0, 0.1864, 65.10
375.5, 0.1861, 65.15
376.0, 0.1854, 65.25
376.5, 0.1851, 65.30
377.0, 0.1847, 65.36
377.5, 0.1844, 65.40
378.0, 0.1842, 65.44
378.5, 0.1837, 65.51
379.0, 0.1833, 65.57
379.5, 0.1828, 65.64
380.0, 0.1825, 65.70
380.5, 0.1820, 65.76
381.0, 0.1817, 65.81
381.5, 0.1811, 65.90
382.0, 0.1808, 65.94
382.5, 0.1807, 65.97
383.0, 0.1802, 66.03
383.5, 0.1798, 66.10
384.0, 0.1793, 66.17
384.5, 0.1790, 66.21
385.0, 0.1787, 66.27
385.5, 0.1782, 66.35
386.0, 0.1778, 66.40
386.5, 0.1775, 66.46
387.0, 0.1772, 66.50
387.5, 0.1769, 66.55
388.0, 0.1765, 66.60
388.5, 0.1761, 66.67
389.0, 0.1757, 66.73
389.5, 0.1753, 66.78
390.0, 0.1749, 66.84
390.5, 0.1747, 66.88
391.0, 0.1743, 66.94
391.5, 0.1740, 66.99
392.0, 0.1736, 67.05
392.5, 0.1734, 67.08
393.0, 0.1731, 67.13
393.5, 0.1727, 67.19
394.0, 0.1722, 67.26
394.5, 0.1720, 67.30
395.0, 0.1716, 67.37
395.5, 0.1712, 67.42
396.0, 0.1707, 67.50
396.5, 0.1705, 67.54
397.0, 0.1703, 67.57
397.5, 0.1700, 67.61
398.0, 0.1695, 67.68
398.5, 0.1692, 67.74
399.0, 0.1688, 67.79
399.5, 0.1685, 67.85
400.0, 0.1682, 67.88
400.5, 0.1679, 67.94
401.0, 0.1676, 67.99
401.5, 0.1672, 68.04
402.0, 0.1669, 68.09
402.5, 0.1667, 68.13
403.0, 0.1662, 68.20
403.5, 0.1659, 68.25
404.0, 0.1655, 68.31
404.5, 0.1652, 68.36
405.0, 0.1649, 68.41
405.5, 0.1646, 68.46
406.0, 0.1643, 68.51
406.5, 0.1639, 68.56
407.0, 0.1638, 68.59
407.5, 0.1633, 68.65
408.0, 0.1630, 68.71
408.5, 0.1627, 68.75
409.0, 0.1624, 68.80
409.5, 0.1621, 68.85
410.0, 0.1618, 68.90
410.5, 0.1614, 68.96
411.0, 0.1611, 69.00
411.5, 0.1609, 69.04
412.0, 0.1606, 69.09
412.5, 0.1603, 69.14
413.0, 0.1600, 69.18
413.5, 0.1597, 69.24
414.0, 0.1593, 69.30
414.5, 0.1590, 69.34
415.0, 0.1587, 69.39
415.5, 0.1585, 69.43
416.0, 0.1581, 69.48
416.5, 0.1579, 69.53
417.0, 0.1576, 69.57
417.5, 0.1573, 69.62
418.0, 0.1570, 69.66
418.5, 0.1567, 69.72
419.0, 0.1564, 69.77
419.5, 0.1561, 69.81
420.0, 0.1558, 69.86
420.5, 0.1554, 69.91
421.0, 0.1552, 69.95
421.5, 0.1549, 70.00
422.0, 0.1547, 70.04
422.5, 0.1544, 70.08
423.0, 0.1541, 70.12
423.5, 0.1538, 70.18
424.0, 0.1535, 70.23
424.5, 0.1532, 70.28
425.0, 0.1530, 70.31
425.5, 0.1527, 70.35
426.0, 0.1524, 70.40
426.5, 0.1521, 70.45
427.0, 0.1518, 70.50
427.5, 0.1516, 70.54
428.0, 0.1513, 70.58
428.5, 0.1510, 70.63
429.0, 0.1507, 70.67
429.5, 0.1505, 70.72
430.0, 0.1503, 70.75
430.5, 0.1499, 70.80
431.0, 0.1497, 70.84
431.5, 0.1495, 70.88
432.0, 0.1492, 70.92
432.5, 0.1490, 70.96
433.0, 0.1487, 71.01
433.5, 0.1483, 71.08
434.0, 0.1480, 71.12
434.5, 0.1478, 71.15
435.0, 0.1476, 71.19
435.5, 0.1473, 71.23
436.0, 0.1471, 71.28
436.5, 0.1469, 71.31
437.0, 0.1466, 71.36
437.5, 0.1463, 71.40
438.0, 0.1460, 71.45
438.5, 0.1458, 71.48
439.0, 0.1455, 71.53
439.5, 0.1452, 71.57
440.0, 0.1450, 71.61
440.5, 0.1448, 71.65
441.0, 0.1445, 71.69
441.5, 0.1444, 71.72
442.0, 0.1441, 71.77
442.5, 0.1437, 71.83
443.0, 0.1435, 71.86
443.5, 0.1433, 71.89
444.0, 0.1431, 71.93
444.5, 0.1428, 71.97
445.0, 0.1426, 72.01
445.5, 0.1423, 72.06
446.0, 0.1421, 72.09
446.5, 0.1418, 72.15
447.0, 0.1416, 72.18
447.5, 0.1413, 72.23
448.0, 0.1411, 72.25
448.5, 0.1408, 72.31
449.0, 0.1406, 72.35
449.5, 0.1403, 72.40
450.0, 0.1403, 72.40
450.5, 0.1398, 72.48
451.0, 0.1395, 72.53
451.5, 0.1393, 72.56
452.0, 0.1390, 72.61
452.5, 0.1388, 72.64
453.0, 0.1386, 72.68
453.5, 0.1384, 72.71
454.0, 0.1381, 72.76
454.5, 0.1379, 72.79
455.0, 0.1376, 72.84
455.5, 0.1373, 72.89
456.0, 0.1372, 72.91
456.5, 0.1370, 72.94
457.0, 0.1368, 72.99
457.5, 0.1365, 73.03
458.0, 0.1363, 73.07
458.5, 0.1360, 73.11
459.0, 0.1359, 73.13
459.5, 0.1356, 73.18
460.0, 0.1353, 73.23
460.5, 0.1350, 73.28
461.0, 0.1349, 73.30
461.5, 0.1345, 73.36
462.0, 0.1344, 73.38
462.5, 0.1342, 73.42
463.0, 0.1340, 73.45
463.5, 0.1339, 73.47
464.0, 0.1336, 73.52
464.5, 0.1333, 73.56
465.0, 0.1331, 73.60
465.5, 0.1329, 73.63
466.0, 0.1328, 73.66
466.5, 0.1325, 73.70
467.0, 0.1323, 73.74
467.5, 0.1321, 73.78
468.0, 0.1319, 73.81
468.5, 0.1317, 73.84
469.0, 0.1314, 73.89
469.5, 0.1311, 73.94
470.0, 0.1309, 73.97
470.5, 0.1308, 73.99
471.0, 0.1306, 74.03
471.5, 0.1304, 74.06
472.0, 0.1301, 74.12
472.5, 0.1299, 74.14
473.0, 0.1297, 74.18
473.5, 0.1296, 74.20
474.0, 0.1294, 74.24
474.5, 0.1291, 74.29
475.0, 0.1289, 74.33
475.5, 0.1287, 74.36
476.0, 0.1286, 74.38
476.5, 0.1283, 74.42
477.0, 0.1280, 74.47
477.5, 0.1279, 74.50
478.0, 0.1277, 74.53
478.5, 0.1276, 74.55
479.0, 0.1273, 74.60
479.5, 0.1270, 74.64
480.0, 0.1269, 74.66
480.5, 0.1267, 74.69
481.0, 0.1265, 74.73
481.5, 0.1263, 74.76
482.0, 0.1262, 74.79
482.5, 0.1260, 74.82
483.0, 0.1257, 74.86
483.5, 0.1255, 74.90
484.0, 0.1253, 74.95
484.5, 0.1251, 74.98
485.0, 0.1249, 75.00
485.5, 0.1248, 75.03
486.0, 0.1246, 75.06
486.5, 0.1244, 75.09
487.0, 0.1242, 75.13
487.5, 0.1240, 75.16
488.0, 0.1239, 75.19
488.5, 0.1235, 75.24
489.0, 0.1233, 75.28
489.5, 0.1232, 75.31
490.0, 0.1230, 75.33
490.5, 0.1229, 75.36
491.0, 0.1227, 75.39
491.5, 0.1224, 75.44
492.0, 0.1223, 75.46
492.5, 0.1220, 75.50
493.0, 0.1219, 75.52
493.5, 0.1217, 75.56
494.0, 0.1215, 75.59
494.5, 0.1213, 75.62
495.0, 0.1211, 75.66
495.5, 0.1210, 75.68
496.0, 0.1208, 75.71
496.5, 0.1205, 75.76
497.0, 0.1205, 75.77
497.5, 0.1203, 75.81
498.0, 0.1201, 75.85
498.5, 0.1198, 75.89
499.0, 0.1196, 75.93
499.5, 0.1195, 75.94
500.0, 0.1193, 75.98
500.5, 0.1191, 76.01
501.0, 0.1190, 76.04
501.5, 0.1188, 76.07
502.0, 0.1187, 76.09
502.5, 0.1185, 76.13
503.0, 0.1182, 76.17
503.5, 0.1181, 76.19
504.0, 0.1179, 76.23
504.5, 0.1177, 76.25
505.0, 0.1177, 76.27
505.5, 0.1175, 76.30
506.0, 0.1172, 76.34
506.5, 0.1172, 76.35
507.0, 0.1170, 76.38
507.5, 0.1168, 76.41
508.0, 0.1166, 76.46
508.5, 0.1165, 76.48
509.0, 0.1163, 76.51
509.5, 0.1161, 76.55
510.0, 0.1160, 76.57
510.5, 0.1159, 76.58
511.0, 0.1156, 76.64
511.5, 0.1155, 76.65
512.0, 0.1153, 76.68
512.5, 0.1152, 76.70
513.0, 0.1150, 76.73
513.5, 0.1149, 76.76
514.0, 0.1147, 76.79
514.5, 0.1146, 76.81
515.0, 0.1143, 76.86
515.5, 0.1143, 76.87
516.0, 0.1141, 76.90
516.5, 0.1138, 76.94
517.0, 0.1139, 76.94
517.5, 0.1135, 76.99
518.0, 0.1135, 77.01
518.5, 0.1133, 77.04
519.0, 0.1131, 77.07
519.5, 0.1130, 77.10
520.0, 0.1128, 77.12
520.5, 0.1126, 77.16
521.0, 0.1124, 77.19
521.5, 0.1123, 77.21
522.0, 0.1122, 77.23
522.5, 0.1120, 77.26
523.0, 0.1118, 77.30
523.5, 0.1117, 77.33
524.0, 0.1116, 77.34
524.5, 0.1114, 77.37
525.0, 0.1113, 77.38
525.5, 0.1110, 77.44
526.0, 0.1110, 77.45
526.5, 0.1108, 77.48
527.0, 0.1107, 77.50
527.5, 0.1105, 77.54
528.0, 0.1102, 77.58
528.5, 0.1101, 77.60
529.0, 0.1101, 77.61
529.5, 0.1100, 77.63
530.0, 0.1098, 77.66
530.5, 0.1096, 77.70
531.0, 0.1094, 77.72
531.5, 0.1093, 77.74
532.0, 0.1093, 77.76
532.5, 0.1090, 77.80
533.0, 0.1089, 77.82
533.5, 0.1088, 77.84
534.0, 0.1086, 77.87
534.5, 0.1085, 77.89
535.0, 0.1083, 77.93
535.5, 0.1082, 77.96
536.0, 0.1080, 77.98
536.5, 0.1078, 78.01
537.0, 0.1077, 78.04
537.5, 0.1075, 78.06
538.0, 0.1074, 78.09
538.5, 0.1073, 78.12
539.0, 0.1071, 78.14
539.5, 0.1069, 78.17
540.0, 0.1069, 78.18
540.5, 0.1067, 78.22
541.0, 0.1066, 78.24
541.5, 0.1065, 78.26
542.0, 0.1063, 78.28
542.5, 0.1060, 78.33
543.0, 0.1060, 78.35
543.5, 0.1059, 78.37
544.0, 0.1057, 78.40
544.5, 0.1055, 78.43
545.0, 0.1053, 78.46
545.5, 0.1053, 78.47
546.0, 0.1052, 78.49
546.5, 0.1050, 78.53
547.0, 0.1049, 78.55
547.5, 0.1048, 78.57
548.0, 0.1047, 78.57
548.5, 0.1045, 78.61
549.0, 0.1044, 78.63
549.5, 0.1043, 78.66
550.0, 0.1041, 78.69
550.5, 0.1040, 78.70
551.0, 0.1039, 78.73
551.5, 0.1036, 78.77
552.0, 0.1036, 78.78
552.5, 0.1034, 78.81
553.0, 0.1034, 78.82
553.5, 0.1032, 78.86
554.0, 0.1031, 78.87
554.5, 0.1029, 78.90
555.0, 0.1028, 78.92
555.5, 0.1027, 78.95
556.0, 0.1025, 78.97
556.5, 0.1024, 78.99
557.0, 0.1023, 79.02
557.5, 0.1022, 79.03
558.0, 0.1020, 79.06
558.5, 0.1020, 79.07
559.0, 0.1018, 79.11
559.5, 0.1017, 79.13
560.0, 0.1015, 79.16
560.5, 0.1014, 79.18
561.0, 0.1013, 79.20
561.5, 0.1010, 79.25
562.0, 0.1009, 79.27
562.5, 0.1008, 79.29
563.0, 0.1008, 79.29
563.5, 0.1006, 79.32
564.0, 0.1005, 79.34
564.5, 0.1004, 79.36
565.0, 0.1002, 79.39
565.5, 0.1001, 79.41
566.0, 0.1000, 79.44
566.5, 0.0999, 79.45
567.0, 0.0998, 79.47
567.5, 0.0997, 79.49
568.0, 0.0995, 79.52
568.5, 0.0994, 79.54
569.0, 0.0992, 79.58
569.5, 0.0992, 79.58
570.0, 0.0990, 79.61
570.5, 0.0989, 79.63
571.0, 0.0987, 79.67
571.5, 0.0987, 79.67
572.0, 0.0986, 79.70
572.5, 0.0984, 79.72
573.0, 0.0983, 79.74
573.5, 0.0982, 79.77
574.0, 0.0981, 79.79
574.5, 0.0980, 79.80
575.0, 0.0978, 79.83
575.5, 0.0977, 79.85
576.0, 0.0976, 79.88
576.5, 0.0975, 79.89
577.0, 0.0974, 79.91
577.5, 0.0973, 79.93
578.0, 0.0972, 79.95
578.5, 0.0964, 80.09
579.0, 0.0963, 80.11
579.5, 0.0963, 80.11
580.0, 0.0963, 80.12
580.5, 0.0961, 80.16
581.0, 0.0960, 80.17
581.5, 0.0959, 80.19
582.0, 0.0959, 80.19
582.5, 0.0958, 80.21
583.0, 0.0957, 80.23
583.5, 0.0956, 80.24
584.0, 0.0955, 80.26
584.5, 0.0954, 80.27
585.0, 0.0953, 80.30
585.5, 0.0953, 80.30
586.0, 0.0952, 80.32
586.5, 0.0951, 80.34
587.0, 0.0949, 80.36
587.5, 0.0949, 80.37
588.0, 0.0948, 80.39
588.5, 0.0947, 80.40
589.0, 0.0947, 80.41
589.5, 0.0947, 80.41
590.0, 0.0944, 80.46
590.5, 0.0944, 80.46
591.0, 0.0943, 80.48
591.5, 0.0941, 80.52
592.0, 0.0941, 80.52
592.5, 0.0939, 80.55
593.0, 0.0938, 80.57
593.5, 0.0937, 80.59
594.0, 0.0936, 80.60
594.5, 0.0935, 80.63
595.0, 0.0934, 80.66
595.5, 0.0932, 80.68
596.0, 0.0932, 80.68
596.5, 0.0930, 80.72
597.0, 0.0929, 80.74
597.5, 0.0928, 80.77
598.0, 0.0928, 80.76
598.5, 0.0927, 80.78
599.0, 0.0925, 80.81
599.5, 0.0925, 80.82
600.0, 0.0923, 80.85
600.5, 0.0923, 80.86
601.0, 0.0922, 80.88
601.5, 0.0921, 80.89
602.0, 0.0919, 80.92
602.5, 0.0917, 80.96
603.0, 0.0916, 80.98
603.5, 0.0916, 80.99
604.0, 0.0915, 81.00
604.5, 0.0914, 81.03
605.0, 0.0913, 81.04
605.5, 0.0912, 81.06
606.0, 0.0912, 81.07
606.5, 0.0910, 81.10
607.0, 0.0908, 81.13
607.5, 0.0907, 81.15
608.0, 0.0907, 81.15
608.5, 0.0906, 81.17
609.0, 0.0905, 81.20
609.5, 0.0904, 81.21
610.0, 0.0902, 81.24
610.5, 0.0902, 81.25
611.0, 0.0901, 81.27
611.5, 0.0900, 81.29
612.0, 0.0899, 81.31
612.5, 0.0898, 81.33
613.0, 0.0897, 81.34
613.5, 0.0896, 81.35
614.0, 0.0895, 81.38
614.5, 0.0894, 81.40
615.0, 0.0894, 81.40
615.5, 0.0892, 81.44
616.0, 0.0891, 81.46
616.5, 0.0889, 81.48
617.0, 0.0889, 81.49
617.5, 0.0888, 81.50
618.0, 0.0887, 81.53
618.5, 0.0886, 81.54
619.0, 0.0885, 81.56
619.5, 0.0884, 81.59
620.0, 0.0883, 81.59
620.5, 0.0882, 81.62
621.0, 0.0882, 81.62
621.5, 0.0880, 81.66
622.0, 0.0879, 81.67
622.5, 0.0879, 81.68
623.0, 0.0877, 81.71
623.5, 0.0877, 81.71
624.0, 0.0876, 81.73
624.5, 0.0875, 81.75
625.0, 0.0874, 81.78
625.5, 0.0874, 81.78
626.0, 0.0872, 81.82
626.5, 0.0872, 81.82
627.0, 0.0871, 81.83
627.5, 0.0869, 81.86
628.0, 0.0869, 81.87
628.5, 0.0868, 81.88
629.0, 0.0867, 81.91
629.5, 0.0865, 81.93
630.0, 0.0865, 81.93
630.5, 0.0864, 81.96
631.0, 0.0864, 81.96
631.5, 0.0862, 81.99
632.0, 0.0861, 82.02
632.5, 0.0861, 82.02
633.0, 0.0860, 82.03
633.5, 0.0859, 82.05
634.0, 0.0858, 82.07
634.5, 0.0857, 82.08
635.0, 0.0856, 82.11
635.5, 0.0855, 82.13
636.0, 0.0854, 82.15
636.5, 0.0854, 82.14
637.0, 0.0852, 82.18
637.5, 0.0852, 82.18
638.0, 0.0851, 82.21
638.5, 0.0850, 82.22
639.0, 0.0850, 82.23
639.5, 0.0849, 82.25
640.0, 0.0848, 82.27
640.5, 0.0847, 82.29
641.0, 0.0846, 82.30
641.5, 0.0845, 82.32
642.0, 0.0844, 82.34
642.5, 0.0844, 82.34
643.0, 0.0842, 82.37
643.5, 0.0842, 82.38
644.0, 0.0841, 82.40
644.5, 0.0839, 82.42
645.0, 0.0839, 82.43
645.5, 0.0838, 82.45
646.0, 0.0838, 82.45
646.5, 0.0836, 82.49
647.0, 0.0835, 82.50
647.5, 0.0835, 82.51
648.0, 0.0834, 82.52
648.5, 0.0833, 82.54
649.0, 0.0833, 82.55
649.5, 0.0831, 82.58
650.0, 0.0831, 82.58
650.5, 0.0831, 82.59
651.0, 0.0829, 82.62
651.5, 0.0829, 82.63
652.0, 0.0828, 82.65
652.5, 0.0827, 82.65
653.0, 0.0826, 82.68
653.5, 0.0826, 82.67
654.0, 0.0824, 82.72
654.5, 0.0824, 82.72
655.0, 0.0823, 82.74
655.5, 0.0821, 82.77
656.0, 0.0821, 82.77
656.5, 0.0820, 82.79
657.0, 0.0820, 82.79
657.5, 0.0819, 82.81
658.0, 0.0818, 82.83
658.5, 0.0816, 82.86
659.0, 0.0817, 82.86
659.5, 0.0815, 82.88
660.0, 0.0815, 82.89
660.5, 0.0815, 82.90
661.0, 0.0813, 82.92
661.5, 0.0813, 82.94
662.0, 0.0811, 82.96
662.5, 0.0811, 82.97
663.0, 0.0810, 82.99
663.5, 0.0810, 82.98
664.0, 0.0809, 83.01
664.5, 0.0809, 83.01
665.0, 0.0807, 83.04
665.5, 0.0807, 83.05
666.0, 0.0805, 83.07
666.5, 0.0804, 83.09
667.0, 0.0804, 83.10
667.5, 0.0803, 83.11
668.0, 0.0803, 83.12
668.5, 0.0802, 83.14
669.0, 0.0802, 83.15
669.5, 0.0801, 83.17
670.0, 0.0800, 83.17
670.5, 0.0799, 83.19
671.0, 0.0798, 83.22
671.5, 0.0798, 83.21
672.0, 0.0797, 83.23
672.5, 0.0796, 83.25
673.0, 0.0795, 83.28
673.5, 0.0795, 83.28
674.0, 0.0795, 83.28
674.5, 0.0793, 83.30
675.0, 0.0792, 83.33
675.5, 0.0791, 83.35
676.0, 0.0790, 83.36
676.5, 0.0790, 83.37
677.0, 0.0789, 83.38
677.5, 0.0789, 83.39
678.0, 0.0788, 83.41
678.5, 0.0787, 83.42
679.0, 0.0786, 83.44
679.5, 0.0786, 83.45
680.0, 0.0785, 83.46
680.5, 0.0784, 83.49
681.0, 0.0784, 83.48
681.5, 0.0783, 83.50
682.0, 0.0782, 83.51
682.5, 0.0781, 83.54
683.0, 0.0781, 83.55
683.5, 0.0780, 83.57
684.0, 0.0779, 83.57
684.5, 0.0778, 83.60
685.0, 0.0777, 83.61
685.5, 0.0777, 83.63
686.0, 0.0776, 83.63
686.5, 0.0775, 83.65
687.0, 0.0775, 83.66
687.5, 0.0774, 83.67
688.0, 0.0773, 83.70
688.5, 0.0773, 83.70
689.0, 0.0772, 83.72
689.5, 0.0771, 83.73
690.0, 0.0771, 83.74
690.5, 0.0770, 83.75
691.0, 0.0769, 83.77
691.5, 0.0769, 83.78
692.0, 0.0768, 83.79
692.5, 0.0768, 83.80
693.0, 0.0767, 83.82
693.5, 0.0766, 83.84
694.0, 0.0765, 83.84
694.5, 0.0764, 83.88
695.0, 0.0764, 83.87
695.5, 0.0763, 83.89
696.0, 0.0762, 83.90
696.5, 0.0762, 83.90
697.0, 0.0762, 83.91
697.5, 0.0761, 83.93
698.0, 0.0759, 83.96
698.5, 0.0759, 83.96
699.0, 0.0759, 83.97
699.5, 0.0758, 83.98
700.0, 0.0757, 84.00
700.5, 0.0757, 84.01
701.0, 0.0756, 84.03
701.5, 0.0755, 84.04
702.0, 0.0755, 84.04
702.5, 0.0754, 84.07
703.0, 0.0753, 84.08
703.5, 0.0752, 84.10
704.0, 0.0752, 84.09
704.5, 0.0752, 84.11
705.0, 0.0751, 84.13
705.5, 0.0750, 84.14
706.0, 0.0749, 84.15
706.5, 0.0749, 84.15
707.0, 0.0748, 84.18
707.5, 0.0747, 84.19
708.0, 0.0747, 84.20
708.5, 0.0747, 84.20
709.0, 0.0746, 84.22
709.5, 0.0745, 84.23
710.0, 0.0745, 84.24
710.5, 0.0739, 84.36
711.0, 0.0738, 84.37
711.5, 0.0737, 84.39
712.0, 0.0738, 84.38
712.5, 0.0736, 84.40
713.0, 0.0736, 84.40
713.5, 0.0736, 84.42
714.0, 0.0736, 84.42
714.5, 0.0735, 84.43
715.0, 0.0735, 84.44
715.5, 0.0734, 84.46
716.0, 0.0733, 84.46
716.5, 0.0733, 84.47
717.0, 0.0733, 84.48
717.5, 0.0732, 84.49
718.0, 0.0732, 84.50
718.5, 0.0731, 84.51
719.0, 0.0730, 84.52
719.5, 0.0731, 84.52
720.0, 0.0730, 84.53
720.5, 0.0729, 84.54
721.0, 0.0729, 84.55
721.5, 0.0728, 84.56
722.0, 0.0728, 84.56
722.5, 0.0728, 84.57
723.0, 0.0727, 84.58
723.5, 0.0727, 84.59
724.0, 0.0726, 84.60
724.5, 0.0726, 84.61
725.0, 0.0726, 84.61
725.5, 0.0725, 84.62
726.0, 0.0725, 84.63
726.5, 0.0725, 84.63
727.0, 0.0724, 84.64
727.5, 0.0724, 84.65
728.0, 0.0723, 84.66
728.5, 0.0723, 84.66
729.0, 0.0723, 84.67
729.5, 0.0722, 84.68
730.0, 0.0722, 84.68
730.5, 0.0722, 84.69
731.0, 0.0722, 84.69
731.5, 0.0721, 84.71
732.0, 0.0721, 84.70
732.5, 0.0721, 84.71
733.0, 0.0720, 84.72
733.5, 0.0720, 84.72
734.0, 0.0720, 84.73
734.5, 0.0719, 84.73
735.0, 0.0720, 84.73
735.5, 0.0719, 84.74
736.0, 0.0718, 84.75
736.5, 0.0718, 84.76
737.0, 0.0718, 84.76
737.5, 0.0718, 84.77
738.0, 0.0717, 84.78
738.5, 0.0717, 84.79
739.0, 0.0715, 84.81
739.5, 0.0715, 84.82
740.0, 0.0715, 84.82
740.5, 0.0714, 84.84
741.0, 0.0714, 84.84
741.5, 0.0712, 84.87
742.0, 0.0713, 84.86
742.5, 0.0712, 84.88
743.0, 0.0712, 84.89
743.5, 0.0711, 84.90
744.0, 0.0711, 84.90
744.5, 0.0710, 84.91
745.0, 0.0710, 84.92
745.5, 0.0709, 84.93
746.0, 0.0709, 84.95
746.5, 0.0709, 84.95
747.0, 0.0708, 84.96
747.5, 0.0707, 84.98
748.0, 0.0706, 84.99
748.5, 0.0706, 85.00
749.0, 0.0705, 85.01
749.5, 0.0705, 85.01
750.0, 0.0704, 85.03
750.5, 0.0703, 85.05
751.0, 0.0703, 85.05
751.5, 0.0703, 85.06
752.0, 0.0702, 85.07
752.5, 0.0702, 85.08
753.0, 0.0701, 85.09
753.5, 0.0701, 85.09
754.0, 0.0700, 85.11
754.5, 0.0699, 85.13
755.0, 0.0699, 85.13
755.5, 0.0699, 85.14
756.0, 0.0697, 85.16
756.5, 0.0698, 85.15
757.0, 0.0697, 85.18
757.5, 0.0697, 85.18
758.0, 0.0696, 85.20
758.5, 0.0695, 85.21
759.0, 0.0695, 85.22
759.5, 0.0694, 85.23
760.0, 0.0693, 85.24
760.5, 0.0693, 85.26
761.0, 0.0693, 85.25
761.5, 0.0692, 85.28
762.0, 0.0691, 85.29
762.5, 0.0691, 85.29
763.0, 0.0690, 85.30
763.5, 0.0690, 85.30
764.0, 0.0690, 85.32
764.5, 0.0689, 85.33
765.0, 0.0689, 85.33
765.5, 0.0688, 85.36
766.0, 0.0688, 85.36
766.5, 0.0687, 85.37
767.0, 0.0686, 85.38
767.5, 0.0686, 85.40
768.0, 0.0686, 85.39
768.5, 0.0684, 85.42
769.0, 0.0684, 85.42
769.5, 0.0684, 85.43
770.0, 0.0684, 85.43
770.5, 0.0682, 85.46
771.0, 0.0682, 85.46
771.5, 0.0682, 85.47
772.0, 0.0681, 85.49
772.5, 0.0681, 85.50
773.0, 0.0680, 85.51
773.5, 0.0680, 85.51
774.0, 0.0679, 85.53
774.5, 0.0679, 85.53
775.0, 0.0678, 85.55
775.5, 0.0677, 85.56
776.0, 0.0677, 85.56
776.5, 0.0676, 85.59
777.0, 0.0676, 85.58
777.5, 0.0675, 85.61
778.0, 0.0675, 85.60
778.5, 0.0674, 85.63
779.0, 0.0674, 85.62
779.5, 0.0673, 85.64
780.0, 0.0672, 85.66
780.5, 0.0672, 85.67
781.0, 0.0671, 85.68
781.5, 0.0671, 85.69
782.0, 0.0669, 85.72
782.5, 0.0669, 85.72
783.0, 0.0668, 85.73
783.5, 0.0669, 85.73
784.0, 0.0667, 85.76
784.5, 0.0667, 85.77
785.0, 0.0666, 85.78
785.5, 0.0667, 85.76
786.0, 0.0665, 85.80
786.5, 0.0665, 85.79
787.0, 0.0664, 85.81
787.5, 0.0664, 85.81
788.0, 0.0664, 85.82
788.5, 0.0662, 85.85
789.0, 0.0663, 85.84
789.5, 0.0662, 85.86
790.0, 0.0661, 85.87
790.5, 0.0660, 85.89
791.0, 0.0660, 85.89
791.5, 0.0660, 85.91
792.0, 0.0659, 85.92
792.5, 0.0659, 85.93
793.0, 0.0659, 85.92
793.5, 0.0658, 85.94
794.0, 0.0657, 85.96
794.5, 0.0658, 85.94
795.0, 0.0657, 85.95
795.5, 0.0656, 85.99
796.0, 0.0655, 85.99
796.5, 0.0654, 86.01
797.0, 0.0654, 86.01
797.5, 0.0654, 86.01
798.0, 0.0653, 86.03
798.5, 0.0654, 86.03
799.0, 0.0651, 86.07
799.5, 0.0652, 86.06
800.0, 0.0652, 86.07
800.5, 0.0645, 86.20
801.0, 0.0646, 86.19
801.5, 0.0644, 86.22
802.0, 0.0645, 86.20
802.5, 0.0643, 86.23
803.0, 0.0644, 86.21
803.5, 0.0644, 86.22
804.0, 0.0643, 86.25
804.5, 0.0643, 86.25
805.0, 0.0642, 86.27
805.5, 0.0642, 86.26
806.0, 0.0642, 86.26
806.5, 0.0642, 86.26
807.0, 0.0642, 86.26
807.5, 0.0641, 86.27
808.0, 0.0641, 86.28
808.5, 0.0641, 86.29
809.0, 0.0640, 86.30
809.5, 0.0641, 86.29
810.0, 0.0640, 86.30
810.5, 0.0639, 86.33
811.0, 0.0639, 86.32
811.5, 0.0639, 86.33
812.0, 0.0638, 86.33
812.5, 0.0638, 86.35
813.0, 0.0638, 86.35
813.5, 0.0636, 86.37
814.0, 0.0637, 86.37
814.5, 0.0636, 86.38
815.0, 0.0636, 86.37
815.5, 0.0635, 86.39
816.0, 0.0636, 86.38
816.5, 0.0635, 86.40
817.0, 0.0634, 86.41
817.5, 0.0634, 86.41
818.0, 0.0634, 86.42
818.5, 0.0634, 86.42
819.0, 0.0633, 86.43
819.5, 0.0633, 86.43
820.0, 0.0632, 86.45
820.5, 0.0633, 86.44
821.0, 0.0632, 86.45
821.5, 0.0633, 86.44
822.0, 0.0631, 86.47
822.5, 0.0631, 86.47
823.0, 0.0630, 86.49
823.5, 0.0630, 86.49
824.0, 0.0631, 86.48
824.5, 0.0630, 86.50
825.0, 0.0630, 86.50
825.5, 0.0630, 86.50
826.0, 0.0630, 86.51
826.5, 0.0630, 86.51
827.0, 0.0630, 86.50
827.5, 0.0629, 86.51
828.0, 0.0629, 86.51
828.5, 0.0629, 86.52
829.0, 0.0629, 86.51
829.5, 0.0629, 86.52
830.0, 0.0629, 86.52
830.5, 0.0628, 86.53
831.0, 0.0629, 86.52
831.5, 0.0628, 86.53
832.0, 0.0628, 86.54
832.5, 0.0628, 86.53
833.0, 0.0628, 86.53
833.5, 0.0628, 86.53
834.0, 0.0627, 86.56
834.5, 0.0628, 86.53
835.0, 0.0628, 86.54
835.5, 0.0627, 86.56
836.0, 0.0627, 86.56
836.5, 0.0626, 86.57
837.0, 0.0627, 86.56
837.5, 0.0625, 86.59
838.0, 0.0626, 86.58
838.5, 0.0625, 86.60
839.0, 0.0626, 86.58
839.5, 0.0625, 86.60
840.0, 0.0625, 86.59
840.5, 0.0624, 86.61
841.0, 0.0624, 86.62
841.5, 0.0624, 86.61
842.0, 0.0624, 86.61
842.5, 0.0624, 86.61
843.0, 0.0623, 86.63
843.5, 0.0623, 86.64
844.0, 0.0623, 86.64
844.5, 0.0622, 86.65
845.0, 0.0622, 86.66
845.5, 0.0622, 86.66
846.0, 0.0621, 86.68
846.5, 0.0621, 86.68
847.0, 0.0621, 86.67
847.5, 0.0620, 86.69
848.0, 0.0620, 86.69
848.5, 0.0619, 86.71
849.0, 0.0620, 86.70
849.5, 0.0619, 86.71
850.0, 0.0619, 86.72
850.5, 0.0615, 86.80
851.0, 0.0615, 86.80
851.5, 0.0615, 86.81
852.0, 0.0614, 86.81
852.5, 0.0614, 86.82
853.0, 0.0614, 86.82
853.5, 0.0613, 86.83
854.0, 0.0613, 86.83
854.5, 0.0613, 86.84
855.0, 0.0612, 86.85
855.5, 0.0612, 86.85
856.0, 0.0612, 86.85
856.5, 0.0612, 86.86
857.0, 0.0611, 86.88
857.5, 0.0611, 86.88
858.0, 0.0610, 86.89
858.5, 0.0611, 86.88
859.0, 0.0610, 86.90
859.5, 0.0610, 86.89
860.0, 0.0609, 86.91
860.5, 0.0609, 86.91
861.0, 0.0609, 86.92
861.5, 0.0609, 86.92
862.0, 0.0608, 86.93
862.5, 0.0608, 86.94
863.0, 0.0608, 86.93
863.5, 0.0607, 86.95
864.0, 0.0607, 86.95
864.5, 0.0607, 86.96
865.0, 0.0607, 86.97
865.5, 0.0606, 86.98
866.0, 0.0606, 86.98
866.5, 0.0606, 86.98
867.0, 0.0606, 86.98
867.5, 0.0605, 86.99
868.0, 0.0605, 87.00
868.5, 0.0605, 87.00
869.0, 0.0604, 87.01
869.5, 0.0605, 87.00
870.0, 0.0604, 87.02
870.5, 0.0604, 87.02
871.0, 0.0603, 87.03
871.5, 0.0603, 87.03
872.0, 0.0603, 87.04
872.5, 0.0603, 87.04
873.0, 0.0603, 87.05
873.5, 0.0602, 87.06
874.0, 0.0602, 87.05
874.5, 0.0602, 87.06
875.0, 0.0602, 87.06
875.5, 0.0601, 87.07
876.0, 0.0601, 87.07
876.5, 0.0601, 87.08
877.0, 0.0601, 87.08
877.5, 0.0601, 87.08
878.0, 0.0600, 87.09
878.5, 0.0600, 87.09
879.0, 0.0600, 87.09
879.5, 0.0600, 87.10
880.0, 0.0599, 87.11
880.5, 0.0599, 87.12
881.0, 0.0599, 87.11
881.5, 0.0599, 87.12
882.0, 0.0599, 87.12
882.5, 0.0599, 87.13
883.0, 0.0598, 87.14
883.5, 0.0597, 87.15
884.0, 0.0597, 87.15
884.5, 0.0598, 87.15
885.0, 0.0597, 87.16
885.5, 0.0597, 87.15
886.0, 0.0597, 87.17
886.5, 0.0597, 87.17
887.0, 0.0596, 87.18
887.5, 0.0596, 87.17
888.0, 0.0596, 87.18
888.5, 0.0595, 87.19
889.0, 0.0596, 87.19
889.5, 0.0595, 87.19
890.0, 0.0595, 87.19
890.5, 0.0595, 87.19
891.0, 0.0595, 87.20
891.5, 0.0594, 87.21
892.0, 0.0594, 87.22
892.5, 0.0594, 87.22
893.0, 0.0594, 87.21
893.5, 0.0594, 87.23
894.0, 0.0593, 87.23
894.5, 0.0593, 87.23
895.0, 0.0593, 87.24
895.5, 0.0593, 87.23
896.0, 0.0592, 87.25
896.5, 0.0592, 87.25
897.0, 0.0592, 87.26
897.5, 0.0592, 87.25
898.0, 0.0591, 87.27
898.5, 0.0591, 87.27
899.0, 0.0591, 87.27
899.5, 0.0591, 87.27
900.0, 0.0591, 87.27
900.5, 0.0591, 87.28
901.0, 0.0591, 87.28
901.5, 0.0590, 87.30
902.0, 0.0590, 87.29
902.5, 0.0590, 87.29
903.0, 0.0590, 87.30
903.5, 0.0590, 87.30
904.0, 0.0589, 87.31
904.5, 0.0589, 87.32
905.0, 0.0589, 87.32
905.5, 0.0589, 87.32
906.0, 0.0588, 87.33
906.5, 0.0589, 87.32
907.0, 0.0588, 87.34
907.5, 0.0589, 87.32
908.0, 0.0588, 87.34
908.5, 0.0588, 87.34
909.0, 0.0588, 87.34
909.5, 0.0588, 87.35
910.0, 0.0588, 87.34
910.5, 0.0588, 87.34
911.0, 0.0587, 87.35
911.5, 0.0587, 87.36
912.0, 0.0587, 87.35
912.5, 0.0587, 87.35
913.0, 0.0587, 87.35
913.5, 0.0587, 87.36
914.0, 0.0588, 87.34
914.5, 0.0587, 87.35
915.0, 0.0587, 87.35
915.5, 0.0587, 87.35
916.0, 0.0587, 87.36
916.5, 0.0587, 87.35
917.0, 0.0587, 87.36
917.5, 0.0588, 87.34
918.0, 0.0587, 87.35
918.5, 0.0589, 87.32
919.0, 0.0588, 87.35
919.5, 0.0589, 87.33
920.0, 0.0589, 87.32
920.5, 0.0589, 87.32
921.0, 0.0589, 87.32
921.5, 0.0589, 87.32
922.0, 0.0590, 87.30
922.5, 0.0589, 87.31
923.0, 0.0590, 87.29
923.5, 0.0590, 87.29
924.0, 0.0591, 87.27
924.5, 0.0591, 87.27
925.0, 0.0592, 87.25
925.5, 0.0592, 87.25
926.0, 0.0593, 87.24
926.5, 0.0593, 87.23
927.0, 0.0594, 87.22
927.5, 0.0595, 87.20
928.0, 0.0595, 87.20
928.5, 0.0596, 87.18
929.0, 0.0596, 87.17
929.5, 0.0598, 87.14
930.0, 0.0599, 87.13
930.5, 0.0600, 87.10
931.0, 0.0600, 87.09
931.5, 0.0601, 87.07
932.0, 0.0603, 87.04
932.5, 0.0603, 87.03
933.0, 0.0605, 86.99
933.5, 0.0605, 86.99
934.0, 0.0607, 86.96
934.5, 0.0608, 86.94
935.0, 0.0609, 86.92
935.5, 0.0610, 86.89
936.0, 0.0611, 86.87
936.5, 0.0612, 86.85
937.0, 0.0615, 86.80
937.5, 0.0617, 86.76
938.0, 0.0617, 86.75
938.5, 0.0618, 86.73
939.0, 0.0620, 86.69
939.5, 0.0622, 86.65
940.0, 0.0624, 86.62
940.5, 0.0625, 86.61
941.0, 0.0626, 86.57
941.5, 0.0629, 86.52
942.0, 0.0630, 86.50
942.5, 0.0632, 86.45
943.0, 0.0633, 86.44
943.5, 0.0635, 86.40
944.0, 0.0636, 86.37
944.5, 0.0639, 86.31
945.0, 0.0641, 86.28
945.5, 0.0643, 86.24
946.0, 0.0643, 86.23
946.5, 0.0647, 86.16
947.0, 0.0649, 86.11
947.5, 0.0651, 86.07
948.0, 0.0654, 86.03
948.5, 0.0655, 85.99
949.0, 0.0659, 85.92
949.5, 0.0661, 85.88
950.0, 0.0664, 85.82
950.5, 0.0666, 85.78
951.0, 0.0669, 85.72
951.5, 0.0672, 85.66
952.0, 0.0675, 85.60
952.5, 0.0679, 85.52
953.0, 0.0682, 85.46
953.5, 0.0685, 85.40
954.0, 0.0689, 85.33
954.5, 0.0693, 85.26
955.0, 0.0695, 85.20
955.5, 0.0699, 85.13
956.0, 0.0701, 85.09
956.5, 0.0705, 85.02
957.0, 0.0707, 84.97
957.5, 0.0710, 84.92
958.0, 0.0712, 84.89
958.5, 0.0714, 84.85
959.0, 0.0716, 84.80
959.5, 0.0717, 84.78
960.0, 0.0719, 84.73
960.5, 0.0720, 84.72
961.0, 0.0722, 84.69
961.5, 0.0722, 84.68
962.0, 0.0724, 84.64
962.5, 0.0724, 84.65
963.0, 0.0725, 84.62
963.5, 0.0726, 84.61
964.0, 0.0726, 84.61
964.5, 0.0727, 84.59
965.0, 0.0726, 84.60
965.5, 0.0727, 84.58
966.0, 0.0728, 84.57
966.5, 0.0728, 84.56
967.0, 0.0728, 84.58
967.5, 0.0728, 84.56
968.0, 0.0728, 84.57
968.5, 0.0727, 84.58
969.0, 0.0729, 84.55
969.5, 0.0728, 84.56
970.0, 0.0728, 84.56
970.5, 0.0728, 84.58
971.0, 0.0728, 84.57
971.5, 0.0723, 84.66
972.0, 0.0723, 84.67
972.5, 0.0723, 84.67
973.0, 0.0722, 84.69
973.5, 0.0723, 84.66
974.0, 0.0722, 84.68
974.5, 0.0723, 84.66
975.0, 0.0723, 84.67
975.5, 0.0722, 84.68
976.0, 0.0722, 84.68
976.5, 0.0722, 84.68
977.0, 0.0722, 84.69
977.5, 0.0721, 84.70
978.0, 0.0721, 84.70
978.5, 0.0720, 84.72
979.0, 0.0720, 84.72
979.5, 0.0720, 84.73
980.0, 0.0720, 84.72
980.5, 0.0717, 84.78
981.0, 0.0718, 84.77
981.5, 0.0718, 84.77
982.0, 0.0716, 84.79
982.5, 0.0716, 84.80
983.0, 0.0715, 84.82
983.5, 0.0714, 84.85
984.0, 0.0714, 84.84
984.5, 0.0713, 84.87
985.0, 0.0712, 84.88
985.5, 0.0710, 84.91
986.0, 0.0710, 84.93
986.5, 0.0709, 84.94
987.0, 0.0708, 84.96
987.5, 0.0706, 84.99
988.0, 0.0705, 85.02
988.5, 0.0704, 85.03
989.0, 0.0704, 85.04
989.5, 0.0703, 85.06
990.0, 0.0701, 85.09
990.5, 0.0700, 85.12
991.0, 0.0699, 85.14
991.5, 0.0697, 85.16
992.0, 0.0696, 85.19
992.5, 0.0695, 85.21
993.0, 0.0693, 85.24
993.5, 0.0692, 85.26
994.0, 0.0692, 85.28
994.5, 0.0690, 85.32
995.0, 0.0688, 85.34
995.5, 0.0687, 85.36
996.0, 0.0686, 85.39
996.5, 0.0686, 85.40
997.0, 0.0684, 85.43
997.5, 0.0682, 85.46
998.0, 0.0681, 85.49
998.5, 0.0680, 85.50
999.0, 0.0678, 85.54
999.5, 0.0677, 85.56
1000.0, 0.0675, 85.61
1000.5, 0.0674, 85.63
1001.0, 0.0672, 85.67
1001.5, 0.0671, 85.68
1002.0, 0.0669, 85.73
1002.5, 0.0668, 85.74
1003.0, 0.0666, 85.78
1003.5, 0.0665, 85.80
1004.0, 0.0664, 85.83
1004.5, 0.0662, 85.87
1005.0, 0.0661, 85.89
1005.5, 0.0658, 85.94
1006.0, 0.0658, 85.95
1006.5, 0.0656, 85.98
1007.0, 0.0655, 86.00
1007.5, 0.0653, 86.04
1008.0, 0.0652, 86.07
1008.5, 0.0650, 86.09
1009.0, 0.0649, 86.13
1009.5, 0.0648, 86.13
1010.0, 0.0645, 86.19
1010.5, 0.0644, 86.23
1011.0, 0.0643, 86.24
1011.5, 0.0641, 86.28
1012.0, 0.0640, 86.30
1012.5, 0.0638, 86.35
1013.0, 0.0636, 86.37
1013.5, 0.0633, 86.43
1014.0, 0.0634, 86.42
1014.5, 0.0631, 86.48
1015.0, 0.0629, 86.51
1015.5, 0.0623, 86.63
1016.0, 0.0622, 86.65
1016.5, 0.0621, 86.68
1017.0, 0.0619, 86.72
1017.5, 0.0618, 86.74
1018.0, 0.0617, 86.76
1018.5, 0.0615, 86.80
1019.0, 0.0615, 86.80
1019.5, 0.0613, 86.83
1020.0, 0.0611, 86.87
1020.5, 0.0610, 86.89
1021.0, 0.0609, 86.92
1021.5, 0.0608, 86.93
1022.0, 0.0607, 86.96
1022.5, 0.0607, 86.97
1023.0, 0.0605, 87.00
1023.5, 0.0603, 87.04
1024.0, 0.0602, 87.06
1024.5, 0.0600, 87.09
1025.0, 0.0599, 87.12
1025.5, 0.0597, 87.15
1026.0, 0.0597, 87.16
1026.5, 0.0595, 87.19
1027.0, 0.0593, 87.24
1027.5, 0.0591, 87.28
1028.0, 0.0590, 87.29
1028.5, 0.0589, 87.32
1029.0, 0.0588, 87.34
1029.5, 0.0587, 87.36
1030.0, 0.0585, 87.40
1030.5, 0.0585, 87.40
1031.0, 0.0583, 87.44
1031.5, 0.0582, 87.45
1032.0, 0.0581, 87.48
1032.5, 0.0580, 87.50
1033.0, 0.0579, 87.53
1033.5, 0.0578, 87.53
1034.0, 0.0577, 87.57
1034.5, 0.0575, 87.59
1035.0, 0.0573, 87.63
1035.5, 0.0572, 87.66
1036.0, 0.0572, 87.66
1036.5, 0.0571, 87.68
1037.0, 0.0569, 87.71
1037.5, 0.0567, 87.76
1038.0, 0.0568, 87.75
1038.5, 0.0566, 87.78
1039.0, 0.0564, 87.83
1039.5, 0.0561, 87.87
1040.0, 0.0562, 87.86
1040.5, 0.0561, 87.88
1041.0, 0.0558, 87.93
1041.5, 0.0558, 87.93
1042.0, 0.0557, 87.96
1042.5, 0.0556, 87.98
1043.0, 0.0555, 88.00
1043.5, 0.0555, 88.00
1044.0, 0.0553, 88.05
1044.5, 0.0553, 88.04
1045.0, 0.0552, 88.07
1045.5, 0.0551, 88.08
1046.0, 0.0551, 88.09
1046.5, 0.0543, 88.24
1047.0, 0.0544, 88.22
1047.5, 0.0544, 88.23
1048.0, 0.0544, 88.23
1048.5, 0.0543, 88.25
1049.0, 0.0542, 88.27
1049.5, 0.0543, 88.25
1050.0, 0.0542, 88.26
1050.5, 0.0542, 88.27
1051.0, 0.0540, 88.31
1051.5, 0.0540, 88.31
1052.0, 0.0539, 88.34
1052.5, 0.0540, 88.31
1053.0, 0.0538, 88.35
1053.5, 0.0537, 88.37
1054.0, 0.0537, 88.37
1054.5, 0.0536, 88.38
1055.0, 0.0535, 88.40
1055.5, 0.0535, 88.41
1056.0, 0.0535, 88.41
1056.5, 0.0534, 88.44
1057.0, 0.0534, 88.43
1057.5, 0.0533, 88.46
1058.0, 0.0531, 88.49
1058.5, 0.0531, 88.50
1059.0, 0.0531, 88.50
1059.5, 0.0531, 88.50
1060.0, 0.0531, 88.49
1060.5, 0.0528, 88.54
1061.0, 0.0528, 88.54
1061.5, 0.0527, 88.58
1062.0, 0.0527, 88.57
1062.5, 0.0527, 88.58
1063.0, 0.0527, 88.57
1063.5, 0.0526, 88.60
1064.0, 0.0526, 88.60
1064.5, 0.0526, 88.59
1065.0, 0.0527, 88.58
1065.5, 0.0526, 88.59
1066.0, 0.0526, 88.60
1066.5, 0.0525, 88.62
1067.0, 0.0526, 88.60
1067.5, 0.0525, 88.60
1068.0, 0.0525, 88.62
1068.5, 0.0525, 88.62
1069.0, 0.0524, 88.63
1069.5, 0.0525, 88.62
1070.0, 0.0525, 88.61
1070.5, 0.0523, 88.65
1071.0, 0.0523, 88.65
1071.5, 0.0524, 88.64
1072.0, 0.0525, 88.61
1072.5, 0.0519, 88.73
1073.0, 0.0519, 88.75
1073.5, 0.0519, 88.73
1074.0, 0.0519, 88.74
1074.5, 0.0520, 88.71
1075.0, 0.0518, 88.75
1075.5, 0.0519, 88.74
1076.0, 0.0518, 88.75
1076.5, 0.0519, 88.73
1077.0, 0.0519, 88.73
1077.5, 0.0519, 88.73
1078.0, 0.0520, 88.72
1078.5, 0.0519, 88.73
1079.0, 0.0522, 88.67
1079.5, 0.0521, 88.69
1080.0, 0.0521, 88.69
1080.5, 0.0519, 88.73
1081.0, 0.0521, 88.70
1081.5, 0.0522, 88.67
1082.0, 0.0522, 88.67
1082.5, 0.0523, 88.65
1083.0, 0.0523, 88.66
1083.5, 0.0525, 88.61
1084.0, 0.0526, 88.59
1084.5, 0.0529, 88.52
1085.0, 0.0529, 88.53
1085.5, 0.0532, 88.47
1086.0, 0.0530, 88.52
1086.5, 0.0531, 88.49
1087.0, 0.0532, 88.48
1087.5, 0.0530, 88.51
1088.0, 0.0529, 88.53
1088.5, 0.0529, 88.53
1089.0, 0.0531, 88.49
1089.5, 0.0530, 88.50
1090.0, 0.0532, 88.48
1090.5, 0.0530, 88.51
1091.0, 0.0531, 88.50
1091.5, 0.0533, 88.46
1092.0, 0.0533, 88.46
1092.5, 0.0533, 88.46
1093.0, 0.0533, 88.44
1093.5, 0.0534, 88.42
1094.0, 0.0535, 88.40
1094.5, 0.0536, 88.39
1095.0, 0.0537, 88.38
1095.5, 0.0539, 88.32
1096.0, 0.0542, 88.26
1096.5, 0.0548, 88.14
1097.0, 0.0552, 88.07
1097.5, 0.0568, 87.73
1098.0, 0.0573, 87.63
1098.5, 0.0579, 87.51
1099.0, 0.0582, 87.47
1099.5, 0.0582, 87.45
1100.0, 0.0583, 87.44
