Sample Name, Sample-2
Time, March 10 14:32:57 2023
Operator, Smith
Lamp, 0
Slit,0.0
Scan From, 1100.0nm
Scan To, 190.0nm
Scan Step, 0.5nm
Sample Filter, 5
memo, 
WL(nm), Abs, T%
190.0, 2.1451, 0.72
190.5, 2.1820, 0.66
191.0, 2.2557, 0.56
191.5, 2.3349, 0.46
192.0, 2.3953, 0.40
192.5, 2.3777, 0.42
193.0, 2.3372, 0.46
193.5, 2.3711, 0.43
194.0, 2.4095, 0.39
194.5, 2.4295, 0.37
195.0, 2.4664, 0.34
195.5, 2.5308, 0.29
196.0, 2.5442, 0.29
196.5, 2.5938, 0.25
197.0, 2.6269, 0.24
197.5, 2.5990, 0.25
198.0, 2.5786, 0.26
198.5, 2.5235, 0.30
199.0, 2.5525, 0.28
199.5, 2.5536, 0.28
200.0, 2.5972, 0.25
200.5, 2.6404, 0.23
201.0, 2.5877, 0.26
201.5, 2.6084, 0.25
202.0, 2.5745, 0.27
202.5, 2.5507, 0.28
203.0, 2.5463, 0.28
203.5, 2.4977, 0.32
204.0, 2.4674, 0.34
204.5, 2.4531, 0.35
205.0, 2.4357, 0.37
205.5, 2.4058, 0.39
206.0, 2.3906, 0.41
206.5, 2.3741, 0.42
207.0, 2.3241, 0.47
207.5, 2.2840, 0.52
208.0, 2.2334, 0.58
208.5, 2.1987, 0.63
209.0, 2.1636, 0.69
209.5, 2.1236, 0.75
210.0, 2.1000, 0.79
210.5, 2.0635, 0.86
211.0, 2.0379, 0.92
211.5, 2.0003, 1.00
212.0, 1.9728, 1.06
212.5, 1.9366, 1.16
213.0, 1.9032, 1.25
213.5, 1.8748, 1.33
214.0, 1.8425, 1.44
214.5, 1.8157, 1.53
215.0, 1.7886, 1.63
215.5, 1.7644, 1.72
216.0, 1.7393, 1.82
216.5, 1.7147, 1.93
217.0, 1.6925, 2.03
217.5, 1.6682, 2.15
218.0, 1.6436, 2.27
218.5, 1.6198, 2.40
219.0, 1.5970, 2.53
219.5, 1.5775, 2.65
220.0, 1.5581, 2.77
220.5, 1.5388, 2.89
221.0, 1.5200, 3.02
221.5, 1.5006, 3.16
222.0, 1.4822, 3.29
222.5, 1.4630, 3.44
223.0, 1.4444, 3.59
223.5, 1.4245, 3.76
224.0, 1.4077, 3.91
224.5, 1.3901, 4.07
225.0, 1.3739, 4.23
225.5, 1.3566, 4.40
226.0, 1.3395, 4.58
226.5, 1.3220, 4.76
227.0, 1.3047, 4.96
227.5, 1.2864, 5.17
228.0, 1.2686, 5.39
228.5, 1.2513, 5.61
229.0, 1.2348, 5.82
229.5, 1.2170, 6.07
230.0, 1.1993, 6.32
230.5, 1.1820, 6.58
231.0, 1.1639, 6.86
231.5, 1.1454, 7.16
232.0, 1.1270, 7.46
232.5, 1.1084, 7.79
233.0, 1.0900, 8.13
233.5, 1.0719, 8.47
234.0, 1.0545, 8.82
234.5, 1.0376, 9.17
235.0, 1.0215, 9.52
235.5, 1.0057, 9.87
236.0, 0.9903, 10.23
236.5, 0.9753, 10.59
237.0, 0.9604, 10.95
237.5, 0.9464, 11.31
238.0, 0.9332, 11.66
238.5, 0.9201, 12.02
239.0, 0.9074, 12.38
239.5, 0.8963, 12.70
240.0, 0.8855, 13.02
240.5, 0.8761, 13.30
241.0, 0.8659, 13.62
241.5, 0.8569, 13.90
242.0, 0.8481, 14.19
242.5, 0.8400, 14.46
243.0, 0.8316, 14.74
243.5, 0.8233, 15.02
244.0, 0.8163, 15.27
244.5, 0.8094, 15.51
245.0, 0.8030, 15.74
245.5, 0.7966, 15.97
246.0, 0.7908, 16.19
246.5, 0.7850, 16.41
247.0, 0.7791, 16.63
247.5, 0.7736, 16.84
248.0, 0.7689, 17.02
248.5, 0.7637, 17.23
249.0, 0.7590, 17.42
249.5, 0.7542, 17.61
250.0, 0.7501, 17.78
250.5, 0.7453, 17.98
251.0, 0.7413, 18.14
251.5, 0.7371, 18.32
252.0, 0.7330, 18.49
252.5, 0.7291, 18.66
253.0, 0.7253, 18.82
253.5, 0.7214, 18.99
254.0, 0.7183, 19.13
254.5, 0.7135, 19.34
255.0, 0.7104, 19.48
255.5, 0.7071, 19.63
256.0, 0.7041, 19.77
256.5, 0.7007, 19.92
257.0, 0.6978, 20.05
257.5, 0.6948, 20.19
258.0, 0.6920, 20.33
258.5, 0.6891, 20.46
259.0, 0.6865, 20.58
259.5, 0.6837, 20.71
260.0, 0.6817, 20.81
260.5, 0.6790, 20.94
261.0, 0.6765, 21.06
261.5, 0.6740, 21.18
262.0, 0.6715, 21.31
262.5, 0.6691, 21.43
263.0, 0.6667, 21.54
263.5, 0.6643, 21.66
264.0, 0.6625, 21.75
264.5, 0.6606, 21.85
265.0, 0.6586, 21.95
265.5, 0.6568, 22.04
266.0, 0.6550, 22.13
266.5, 0.6527, 22.25
267.0, 0.6509, 22.34
267.5, 0.6490, 22.44
268.0, 0.6471, 22.54
268.5, 0.6451, 22.64
269.0, 0.6433, 22.73
269.5, 0.6416, 22.82
270.0, 0.6403, 22.90
270.5, 0.6384, 22.99
271.0, 0.6367, 23.08
271.5, 0.6346, 23.20
272.0, 0.6331, 23.27
272.5, 0.6313, 23.37
273.0, 0.6295, 23.47
273.5, 0.6278, 23.56
274.0, 0.6261, 23.65
274.5, 0.6245, 23.74
275.0, 0.6229, 23.83
275.5, 0.6213, 23.92
276.0, 0.6191, 24.04
276.5, 0.6176, 24.12
277.0, 0.6157, 24.23
277.5, 0.6138, 24.34
278.0, 0.6118, 24.44
278.5, 0.6099, 24.55
279.0, 0.6080, 24.66
279.5, 0.6063, 24.76
280.0, 0.6043, 24.87
280.5, 0.6024, 24.98
281.0, 0.5999, 25.12
281.5, 0.5978, 25.25
282.0, 0.5955, 25.38
282.5, 0.5933, 25.51
283.0, 0.5911, 25.64
283.5, 0.5888, 25.77
284.0, 0.5865, 25.91
284.5, 0.5842, 26.05
285.0, 0.5818, 26.19
285.5, 0.5789, 26.37
286.0, 0.5760, 26.55
286.5, 0.5730, 26.73
287.0, 0.5699, 26.92
287.5, 0.5667, 27.12
288.0, 0.5640, 27.29
288.5, 0.5612, 27.47
289.0, 0.5587, 27.63
289.5, 0.5557, 27.81
290.0, 0.5532, 27.98
290.5, 0.5502, 28.17
291.0, 0.5473, 28.36
291.5, 0.5441, 28.57
292.0, 0.5414, 28.75
292.5, 0.5382, 28.96
293.0, 0.5353, 29.16
293.5, 0.5325, 29.34
294.0, 0.5300, 29.51
294.5, 0.5274, 29.69
295.0, 0.5244, 29.90
295.5, 0.5215, 30.09
296.0, 0.5189, 30.28
296.5, 0.5161, 30.47
297.0, 0.5135, 30.65
297.5, 0.5111, 30.83
298.0, 0.5087, 30.99
298.5, 0.5064, 31.16
299.0, 0.5043, 31.31
299.5, 0.5020, 31.48
300.0, 0.4999, 31.63
300.5, 0.4977, 31.79
301.0, 0.4956, 31.95
301.5, 0.4933, 32.12
302.0, 0.4913, 32.26
302.5, 0.4892, 32.42
303.0, 0.4874, 32.55
303.5, 0.4855, 32.70
304.0, 0.4837, 32.83
304.5, 0.4820, 32.96
305.0, 0.4800, 33.11
305.5, 0.4782, 33.25
306.0, 0.4763, 33.40
306.5, 0.4746, 33.53
307.0, 0.4726, 33.68
307.5, 0.4709, 33.81
308.0, 0.4693, 33.94
308.5, 0.4679, 34.05
309.0, 0.4664, 34.17
309.5, 0.4646, 34.31
310.0, 0.4631, 34.43
310.5, 0.4615, 34.56
311.0, 0.4599, 34.68
311.5, 0.4583, 34.81
312.0, 0.4567, 34.94
312.5, 0.4552, 35.06
313.0, 0.4539, 35.16
313.5, 0.4526, 35.27
314.0, 0.4513, 35.38
314.5, 0.4499, 35.49
315.0, 0.4484, 35.61
315.5, 0.4470, 35.72
316.0, 0.4457, 35.83
316.5, 0.4442, 35.96
317.0, 0.4427, 36.09
317.5, 0.4415, 36.19
318.0, 0.4402, 36.29
318.5, 0.4391, 36.38
319.0, 0.4380, 36.48
319.5, 0.4365, 36.60
320.0, 0.4352, 36.71
320.5, 0.4337, 36.84
321.0, 0.4324, 36.95
321.5, 0.4311, 37.06
322.0, 0.4297, 37.18
322.5, 0.4285, 37.28
323.0, 0.4275, 37.37
323.5, 0.4264, 37.46
324.0, 0.4252, 37.56
324.5, 0.4239, 37.68
325.0, 0.4227, 37.78
325.5, 0.4215, 37.89
326.0, 0.4201, 38.01
326.5, 0.4188, 38.12
327.0, 0.4177, 38.22
327.5, 0.4165, 38.33
328.0, 0.4157, 38.40
328.5, 0.4146, 38.49
329.0, 0.4133, 38.61
329.5, 0.4119, 38.74
330.0, 0.4109, 38.83
330.5, 0.4096, 38.94
331.0, 0.4085, 39.04
331.5, 0.4072, 39.15
332.0, 0.4060, 39.26
332.5, 0.4053, 39.33
333.0, 0.4043, 39.42
333.5, 0.4033, 39.51
334.0, 0.4021, 39.62
334.5, 0.4009, 39.73
335.0, 0.3997, 39.84
335.5, 0.3985, 39.95
336.0, 0.3973, 40.06
336.5, 0.3962, 40.16
337.0, 0.3951, 40.26
337.5, 0.3943, 40.33
338.0, 0.3933, 40.43
338.5, 0.3922, 40.53
339.0, 0.3913, 40.62
339.5, 0.3895, 40.78
340.0, 0.3884, 40.88
340.5, 0.3877, 40.95
341.0, 0.3865, 41.07
341.5, 0.3854, 41.17
342.0, 0.3843, 41.28
342.5, 0.3831, 41.39
343.0, 0.3822, 41.48
343.5, 0.3815, 41.54
344.0, 0.3807, 41.62
344.5, 0.3797, 41.72
345.0, 0.3784, 41.84
345.5, 0.3777, 41.91
346.0, 0.3763, 42.04
346.5, 0.3750, 42.17
347.0, 0.3740, 42.27
347.5, 0.3731, 42.36
348.0, 0.3724, 42.43
348.5, 0.3716, 42.50
349.0, 0.3708, 42.58
349.5, 0.3700, 42.66
350.0, 0.3689, 42.77
350.5, 0.3678, 42.87
351.0, 0.3669, 42.97
351.5, 0.3656, 43.09
352.0, 0.3648, 43.17
352.5, 0.3637, 43.29
353.0, 0.3629, 43.36
353.5, 0.3623, 43.42
354.0, 0.3615, 43.50
354.5, 0.3605, 43.60
355.0, 0.3596, 43.69
355.5, 0.3587, 43.79
356.0, 0.3577, 43.88
356.5, 0.3565, 44.00
357.0, 0.3558, 44.08
357.5, 0.3548, 44.18
358.0, 0.3541, 44.25
358.5, 0.3533, 44.33
359.0, 0.3525, 44.41
359.5, 0.3517, 44.49
360.0, 0.3508, 44.59
360.5, 0.3496, 44.71
361.0, 0.3488, 44.79
361.5, 0.3478, 44.89
362.0, 0.3470, 44.98
362.5, 0.3463, 45.05
363.0, 0.3457, 45.11
363.5, 0.3448, 45.20
364.0, 0.3441, 45.28
364.5, 0.3432, 45.37
365.0, 0.3423, 45.47
365.5, 0.3413, 45.57
366.0, 0.3404, 45.67
366.5, 0.3394, 45.77
367.0, 0.3388, 45.84
367.5, 0.3380, 45.92
368.0, 0.3375, 45.98
368.5, 0.3369, 46.04
369.0, 0.3361, 46.12
369.5, 0.3352, 46.21
370.0, 0.3343, 46.31
370.5, 0.3332, 46.43
371.0, 0.3323, 46.52
371.5, 0.3316, 46.61
372.0, 0.3307, 46.70
372.5, 0.3299, 46.78
373.0, 0.3294, 46.84
373.5, 0.3288, 46.90
374.0, 0.3279, 47.00
374.5, 0.3271, 47.09
375.0, 0.3262, 47.18
375.5, 0.3255, 47.26
376.0, 0.3247, 47.35
376.5, 0.3239, 47.43
377.0, 0.3231, 47.52
377.5, 0.3226, 47.57
378.0, 0.3219, 47.65
378.5, 0.3212, 47.73
379.0, 0.3204, 47.82
379.5, 0.3195, 47.91
380.0, 0.3187, 48.00
380.5, 0.3182, 48.06
381.0, 0.3173, 48.16
381.5, 0.3165, 48.25
382.0, 0.3159, 48.32
382.5, 0.3154, 48.38
383.0, 0.3147, 48.45
383.5, 0.3139, 48.54
384.0, 0.3131, 48.63
384.5, 0.3125, 48.70
385.0, 0.3118, 48.77
385.5, 0.3110, 48.87
386.0, 0.3103, 48.94
386.5, 0.3095, 49.03
387.0, 0.3089, 49.10
387.5, 0.3083, 49.17
388.0, 0.3077, 49.23
388.5, 0.3069, 49.33
389.0, 0.3062, 49.41
389.5, 0.3055, 49.48
390.0, 0.3049, 49.56
390.5, 0.3044, 49.62
391.0, 0.3035, 49.71
391.5, 0.3029, 49.79
392.0, 0.3023, 49.85
392.5, 0.3016, 49.93
393.0, 0.3012, 49.99
393.5, 0.3004, 50.08
394.0, 0.2998, 50.15
394.5, 0.2991, 50.23
395.0, 0.2983, 50.31
395.5, 0.2977, 50.38
396.0, 0.2969, 50.48
396.5, 0.2963, 50.55
397.0, 0.2958, 50.60
397.5, 0.2953, 50.67
398.0, 0.2946, 50.74
398.5, 0.2940, 50.82
399.0, 0.2933, 50.90
399.5, 0.2926, 50.97
400.0, 0.2920, 51.05
400.5, 0.2913, 51.14
401.0, 0.2907, 51.20
401.5, 0.2902, 51.27
402.0, 0.2895, 51.35
402.5, 0.2890, 51.41
403.0, 0.2884, 51.47
403.5, 0.2877, 51.56
404.0, 0.2872, 51.62
404.5, 0.2866, 51.68
405.0, 0.2859, 51.77
405.5, 0.2852, 51.86
406.0, 0.2847, 51.92
406.5, 0.2841, 51.99
407.0, 0.2836, 52.05
407.5, 0.2829, 52.13
408.0, 0.2823, 52.20
408.5, 0.2817, 52.27
409.0, 0.2812, 52.34
409.5, 0.2806, 52.40
410.0, 0.2800, 52.48
410.5, 0.2793, 52.57
411.0, 0.2788, 52.62
411.5, 0.2783, 52.69
412.0, 0.2777, 52.76
412.5, 0.2773, 52.81
413.0, 0.2766, 52.90
413.5, 0.2760, 52.97
414.0, 0.2754, 53.04
414.5, 0.2748, 53.11
415.0, 0.2743, 53.18
415.5, 0.2738, 53.24
416.0, 0.2732, 53.31
416.5, 0.2726, 53.38
417.0, 0.2721, 53.45
417.5, 0.2716, 53.51
418.0, 0.2710, 53.58
418.5, 0.2704, 53.65
419.0, 0.2698, 53.72
419.5, 0.2692, 53.80
420.0, 0.2688, 53.86
420.5, 0.2682, 53.93
421.0, 0.2676, 54.00
421.5, 0.2672, 54.06
422.0, 0.2667, 54.11
422.5, 0.2662, 54.18
423.0, 0.2656, 54.25
423.5, 0.2651, 54.31
424.0, 0.2644, 54.40
424.5, 0.2640, 54.45
425.0, 0.2634, 54.53
425.5, 0.2629, 54.59
426.0, 0.2624, 54.65
426.5, 0.2619, 54.71
427.0, 0.2614, 54.78
427.5, 0.2608, 54.85
428.0, 0.2604, 54.91
428.5, 0.2599, 54.97
429.0, 0.2593, 55.04
429.5, 0.2587, 55.12
430.0, 0.2582, 55.18
430.5, 0.2577, 55.24
431.0, 0.2573, 55.30
431.5, 0.2568, 55.36
432.0, 0.2563, 55.42
432.5, 0.2558, 55.49
433.0, 0.2553, 55.55
433.5, 0.2548, 55.61
434.0, 0.2543, 55.68
434.5, 0.2538, 55.75
435.0, 0.2533, 55.81
435.5, 0.2529, 55.86
436.0, 0.2524, 55.92
436.5, 0.2519, 55.99
437.0, 0.2514, 56.05
437.5, 0.2509, 56.11
438.0, 0.2505, 56.17
438.5, 0.2499, 56.24
439.0, 0.2495, 56.31
439.5, 0.2490, 56.37
440.0, 0.2485, 56.44
440.5, 0.2480, 56.49
441.0, 0.2476, 56.54
441.5, 0.2472, 56.59
442.0, 0.2466, 56.67
442.5, 0.2462, 56.73
443.0, 0.2457, 56.79
443.5, 0.2453, 56.85
444.0, 0.2448, 56.91
444.5, 0.2443, 56.98
445.0, 0.2439, 57.02
445.5, 0.2434, 57.09
446.0, 0.2431, 57.14
446.5, 0.2426, 57.20
447.0, 0.2421, 57.27
447.5, 0.2416, 57.33
448.0, 0.2413, 57.38
448.5, 0.2407, 57.46
449.0, 0.2403, 57.51
449.5, 0.2398, 57.57
450.0, 0.2395, 57.61
450.5, 0.2387, 57.71
451.0, 0.2383, 57.77
451.5, 0.2379, 57.83
452.0, 0.2373, 57.90
452.5, 0.2369, 57.95
453.0, 0.2364, 58.02
453.5, 0.2361, 58.06
454.0, 0.2356, 58.13
454.5, 0.2351, 58.19
455.0, 0.2347, 58.25
455.5, 0.2343, 58.31
456.0, 0.2338, 58.37
456.5, 0.2335, 58.41
457.0, 0.2330, 58.48
457.5, 0.2325, 58.55
458.0, 0.2322, 58.59
458.5, 0.2318, 58.64
459.0, 0.2314, 58.70
459.5, 0.2309, 58.77
460.0, 0.2305, 58.82
460.5, 0.2301, 58.87
461.0, 0.2297, 58.93
461.5, 0.2292, 58.99
462.0, 0.2288, 59.05
462.5, 0.2284, 59.11
463.0, 0.2280, 59.15
463.5, 0.2276, 59.21
464.0, 0.2272, 59.27
464.5, 0.2267, 59.34
465.0, 0.2263, 59.39
465.5, 0.2260, 59.43
466.0, 0.2256, 59.48
466.5, 0.2251, 59.55
467.0, 0.2247, 59.60
467.5, 0.2243, 59.66
468.0, 0.2239, 59.72
468.5, 0.2236, 59.75
469.0, 0.2231, 59.83
469.5, 0.2228, 59.87
470.0, 0.2224, 59.93
470.5, 0.2220, 59.98
471.0, 0.2216, 60.03
471.5, 0.2212, 60.09
472.0, 0.2208, 60.15
472.5, 0.2204, 60.20
473.0, 0.2200, 60.25
473.5, 0.2196, 60.31
474.0, 0.2193, 60.36
474.5, 0.2189, 60.41
475.0, 0.2184, 60.47
475.5, 0.2180, 60.53
476.0, 0.2176, 60.59
476.5, 0.2173, 60.64
477.0, 0.2168, 60.70
477.5, 0.2165, 60.74
478.0, 0.2162, 60.79
478.5, 0.2158, 60.84
479.0, 0.2154, 60.90
479.5, 0.2150, 60.95
480.0, 0.2147, 61.00
480.5, 0.2142, 61.06
481.0, 0.2139, 61.11
481.5, 0.2135, 61.16
482.0, 0.2133, 61.20
482.5, 0.2128, 61.26
483.0, 0.2125, 61.30
483.5, 0.2121, 61.37
484.0, 0.2116, 61.43
484.5, 0.2113, 61.47
485.0, 0.2109, 61.53
485.5, 0.2106, 61.57
486.0, 0.2102, 61.63
486.5, 0.2098, 61.68
487.0, 0.2096, 61.72
487.5, 0.2092, 61.77
488.0, 0.2088, 61.83
488.5, 0.2085, 61.88
489.0, 0.2081, 61.93
489.5, 0.2077, 61.99
490.0, 0.2074, 62.04
490.5, 0.2070, 62.08
491.0, 0.2066, 62.14
491.5, 0.2063, 62.19
492.0, 0.2060, 62.23
492.5, 0.2056, 62.28
493.0, 0.2053, 62.33
493.5, 0.2049, 62.38
494.0, 0.2046, 62.43
494.5, 0.2043, 62.48
495.0, 0.2038, 62.54
495.5, 0.2036, 62.58
496.0, 0.2032, 62.63
496.5, 0.2028, 62.69
497.0, 0.2026, 62.72
497.5, 0.2022, 62.78
498.0, 0.2018, 62.83
498.5, 0.2014, 62.89
499.0, 0.2011, 62.93
499.5, 0.2008, 62.99
500.0, 0.2004, 63.03
500.5, 0.2001, 63.08
501.0, 0.1998, 63.13
501.5, 0.1995, 63.17
502.0, 0.1992, 63.22
502.5, 0.1988, 63.27
503.0, 0.1985, 63.32
503.5, 0.1981, 63.37
504.0, 0.1978, 63.42
504.5, 0.1976, 63.45
505.0, 0.1972, 63.51
505.5, 0.1969, 63.55
506.0, 0.1966, 63.60
506.5, 0.1963, 63.63
507.0, 0.1960, 63.68
507.5, 0.1957, 63.72
508.0, 0.1954, 63.77
508.5, 0.1949, 63.83
509.0, 0.1947, 63.87
509.5, 0.1944, 63.92
510.0, 0.1941, 63.96
510.5, 0.1938, 64.01
511.0, 0.1934, 64.06
511.5, 0.1932, 64.10
512.0, 0.1929, 64.14
512.5, 0.1926, 64.18
513.0, 0.1923, 64.22
513.5, 0.1919, 64.28
514.0, 0.1916, 64.33
514.5, 0.1913, 64.37
515.0, 0.1911, 64.41
515.5, 0.1908, 64.45
516.0, 0.1905, 64.50
516.5, 0.1900, 64.56
517.0, 0.1898, 64.59
517.5, 0.1896, 64.63
518.0, 0.1893, 64.67
518.5, 0.1889, 64.73
519.0, 0.1886, 64.77
519.5, 0.1883, 64.81
520.0, 0.1881, 64.85
520.5, 0.1877, 64.90
521.0, 0.1875, 64.94
521.5, 0.1871, 65.00
522.0, 0.1868, 65.04
522.5, 0.1866, 65.07
523.0, 0.1863, 65.12
523.5, 0.1859, 65.17
524.0, 0.1858, 65.20
524.5, 0.1854, 65.26
525.0, 0.1851, 65.29
525.5, 0.1848, 65.34
526.0, 0.1846, 65.37
526.5, 0.1844, 65.41
527.0, 0.1841, 65.45
527.5, 0.1837, 65.51
528.0, 0.1834, 65.56
528.5, 0.1831, 65.60
529.0, 0.1829, 65.64
529.5, 0.1826, 65.68
530.0, 0.1824, 65.71
530.5, 0.1820, 65.76
531.0, 0.1817, 65.81
531.5, 0.1816, 65.83
532.0, 0.1812, 65.89
532.5, 0.1808, 65.94
533.0, 0.1807, 65.97
533.5, 0.1804, 66.01
534.0, 0.1801, 66.05
534.5, 0.1799, 66.09
535.0, 0.1796, 66.13
535.5, 0.1793, 66.18
536.0, 0.1790, 66.22
536.5, 0.1788, 66.26
537.0, 0.1785, 66.30
537.5, 0.1782, 66.34
538.0, 0.1779, 66.39
538.5, 0.1777, 66.43
539.0, 0.1774, 66.46
539.5, 0.1771, 66.52
540.0, 0.1769, 66.55
540.5, 0.1765, 66.60
541.0, 0.1763, 66.63
541.5, 0.1761, 66.66
542.0, 0.1758, 66.71
542.5, 0.1755, 66.76
543.0, 0.1753, 66.79
543.5, 0.1750, 66.83
544.0, 0.1747, 66.88
544.5, 0.1745, 66.91
545.0, 0.1742, 66.96
545.5, 0.1740, 66.98
546.0, 0.1737, 67.04
546.5, 0.1734, 67.08
547.0, 0.1732, 67.12
547.5, 0.1729, 67.15
548.0, 0.1728, 67.18
548.5, 0.1725, 67.23
549.0, 0.1723, 67.26
549.5, 0.1719, 67.31
550.0, 0.1717, 67.34
550.5, 0.1715, 67.37
551.0, 0.1712, 67.42
551.5, 0.1709, 67.47
552.0, 0.1707, 67.50
552.5, 0.1705, 67.54
553.0, 0.1702, 67.58
553.5, 0.1699, 67.62
554.0, 0.1697, 67.66
554.5, 0.1695, 67.69
555.0, 0.1692, 67.73
555.5, 0.1690, 67.77
556.0, 0.1687, 67.81
556.5, 0.1685, 67.84
557.0, 0.1682, 67.89
557.5, 0.1680, 67.92
558.0, 0.1678, 67.95
558.5, 0.1675, 67.99
559.0, 0.1673, 68.04
559.5, 0.1670, 68.08
560.0, 0.1668, 68.11
560.5, 0.1665, 68.15
561.0, 0.1663, 68.19
561.5, 0.1660, 68.23
562.0, 0.1657, 68.28
562.5, 0.1655, 68.31
563.0, 0.1653, 68.35
563.5, 0.1651, 68.38
564.0, 0.1649, 68.40
564.5, 0.1647, 68.44
565.0, 0.1645, 68.47
565.5, 0.1642, 68.52
566.0, 0.1640, 68.56
566.5, 0.1637, 68.59
567.0, 0.1635, 68.62
567.5, 0.1633, 68.66
568.0, 0.1631, 68.70
568.5, 0.1628, 68.74
569.0, 0.1625, 68.78
569.5, 0.1624, 68.80
570.0, 0.1622, 68.84
570.5, 0.1619, 68.89
571.0, 0.1616, 68.93
571.5, 0.1614, 68.95
572.0, 0.1612, 69.00
572.5, 0.1610, 69.03
573.0, 0.1608, 69.06
573.5, 0.1605, 69.11
574.0, 0.1603, 69.14
574.5, 0.1601, 69.17
575.0, 0.1599, 69.20
575.5, 0.1596, 69.24
576.0, 0.1595, 69.27
576.5, 0.1592, 69.30
577.0, 0.1590, 69.34
577.5, 0.1588, 69.38
578.0, 0.1586, 69.41
578.5, 0.1576, 69.57
579.0, 0.1575, 69.59
579.5, 0.1573, 69.61
580.0, 0.1572, 69.63
580.5, 0.1569, 69.68
581.0, 0.1568, 69.70
581.5, 0.1565, 69.74
582.0, 0.1564, 69.77
582.5, 0.1562, 69.80
583.0, 0.1560, 69.83
583.5, 0.1558, 69.86
584.0, 0.1556, 69.89
584.5, 0.1554, 69.91
585.0, 0.1552, 69.95
585.5, 0.1552, 69.95
586.0, 0.1550, 69.98
586.5, 0.1548, 70.01
587.0, 0.1546, 70.05
587.5, 0.1544, 70.08
588.0, 0.1543, 70.09
588.5, 0.1540, 70.14
589.0, 0.1540, 70.15
589.5, 0.1537, 70.19
590.0, 0.1534, 70.24
590.5, 0.1532, 70.27
591.0, 0.1531, 70.30
591.5, 0.1529, 70.32
592.0, 0.1527, 70.36
592.5, 0.1525, 70.39
593.0, 0.1523, 70.42
593.5, 0.1521, 70.46
594.0, 0.1519, 70.49
594.5, 0.1517, 70.52
595.0, 0.1513, 70.58
595.5, 0.1512, 70.59
596.0, 0.1510, 70.62
596.5, 0.1508, 70.66
597.0, 0.1507, 70.68
597.5, 0.1504, 70.72
598.0, 0.1504, 70.73
598.5, 0.1501, 70.78
599.0, 0.1499, 70.82
599.5, 0.1497, 70.84
600.0, 0.1495, 70.88
600.5, 0.1493, 70.91
601.0, 0.1491, 70.95
601.5, 0.1490, 70.96
602.0, 0.1487, 71.01
602.5, 0.1486, 71.03
603.0, 0.1483, 71.07
603.5, 0.1481, 71.10
604.0, 0.1479, 71.13
604.5, 0.1478, 71.16
605.0, 0.1475, 71.20
605.5, 0.1474, 71.23
606.0, 0.1472, 71.25
606.5, 0.1470, 71.29
607.0, 0.1467, 71.33
607.5, 0.1466, 71.35
608.0, 0.1464, 71.38
608.5, 0.1462, 71.41
609.0, 0.1461, 71.44
609.5, 0.1459, 71.47
610.0, 0.1456, 71.51
610.5, 0.1456, 71.52
611.0, 0.1453, 71.56
611.5, 0.1451, 71.60
612.0, 0.1450, 71.62
612.5, 0.1448, 71.65
613.0, 0.1445, 71.69
613.5, 0.1444, 71.71
614.0, 0.1442, 71.74
614.5, 0.1440, 71.78
615.0, 0.1439, 71.80
615.5, 0.1436, 71.84
616.0, 0.1434, 71.87
616.5, 0.1433, 71.90
617.0, 0.1431, 71.92
617.5, 0.1429, 71.96
618.0, 0.1427, 71.99
618.5, 0.1425, 72.02
619.0, 0.1423, 72.06
619.5, 0.1422, 72.08
620.0, 0.1420, 72.11
620.5, 0.1419, 72.13
621.0, 0.1417, 72.16
621.5, 0.1415, 72.19
622.0, 0.1413, 72.23
622.5, 0.1411, 72.25
623.0, 0.1409, 72.29
623.5, 0.1407, 72.32
624.0, 0.1406, 72.35
624.5, 0.1404, 72.38
625.0, 0.1403, 72.40
625.5, 0.1400, 72.44
626.0, 0.1398, 72.48
626.5, 0.1397, 72.49
627.0, 0.1396, 72.52
627.5, 0.1394, 72.55
628.0, 0.1392, 72.57
628.5, 0.1390, 72.61
629.0, 0.1388, 72.65
629.5, 0.1386, 72.67
630.0, 0.1386, 72.68
630.5, 0.1383, 72.72
631.0, 0.1382, 72.74
631.5, 0.1380, 72.77
632.0, 0.1378, 72.81
632.5, 0.1376, 72.85
633.0, 0.1375, 72.86
633.5, 0.1373, 72.90
634.0, 0.1371, 72.93
634.5, 0.1370, 72.94
635.0, 0.1368, 72.98
635.5, 0.1366, 73.01
636.0, 0.1365, 73.03
636.5, 0.1364, 73.05
637.0, 0.1362, 73.09
637.5, 0.1360, 73.12
638.0, 0.1358, 73.15
638.5, 0.1356, 73.18
639.0, 0.1356, 73.18
639.5, 0.1354, 73.22
640.0, 0.1352, 73.25
640.5, 0.1350, 73.28
641.0, 0.1349, 73.30
641.5, 0.1346, 73.35
642.0, 0.1346, 73.36
642.5, 0.1343, 73.39
643.0, 0.1342, 73.42
643.5, 0.1341, 73.44
644.0, 0.1339, 73.48
644.5, 0.1337, 73.51
645.0, 0.1336, 73.52
645.5, 0.1335, 73.54
646.0, 0.1333, 73.57
646.5, 0.1331, 73.60
647.0, 0.1329, 73.64
647.5, 0.1328, 73.66
648.0, 0.1326, 73.68
648.5, 0.1325, 73.71
649.0, 0.1323, 73.74
649.5, 0.1321, 73.77
650.0, 0.1320, 73.78
650.5, 0.1319, 73.80
651.0, 0.1317, 73.84
651.5, 0.1316, 73.86
652.0, 0.1314, 73.89
652.5, 0.1312, 73.92
653.0, 0.1311, 73.95
653.5, 0.1310, 73.96
654.0, 0.1308, 74.00
654.5, 0.1306, 74.02
655.0, 0.1305, 74.04
655.5, 0.1303, 74.08
656.0, 0.1302, 74.10
656.5, 0.1300, 74.13
657.0, 0.1299, 74.14
657.5, 0.1298, 74.17
658.0, 0.1296, 74.21
658.5, 0.1293, 74.24
659.0, 0.1293, 74.26
659.5, 0.1292, 74.27
660.0, 0.1289, 74.31
660.5, 0.1289, 74.32
661.0, 0.1287, 74.35
661.5, 0.1286, 74.38
662.0, 0.1284, 74.41
662.5, 0.1282, 74.43
663.0, 0.1280, 74.47
663.5, 0.1280, 74.47
664.0, 0.1278, 74.50
664.5, 0.1277, 74.52
665.0, 0.1275, 74.55
665.5, 0.1273, 74.59
666.0, 0.1272, 74.61
666.5, 0.1271, 74.64
667.0, 0.1269, 74.66
667.5, 0.1268, 74.68
668.0, 0.1266, 74.71
668.5, 0.1265, 74.73
669.0, 0.1264, 74.75
669.5, 0.1263, 74.77
670.0, 0.1261, 74.80
670.5, 0.1260, 74.82
671.0, 0.1258, 74.85
671.5, 0.1257, 74.87
672.0, 0.1255, 74.91
672.5, 0.1254, 74.91
673.0, 0.1252, 74.96
673.5, 0.1251, 74.98
674.0, 0.1250, 74.99
674.5, 0.1248, 75.02
675.0, 0.1247, 75.04
675.5, 0.1245, 75.07
676.0, 0.1244, 75.10
676.5, 0.1243, 75.11
677.0, 0.1241, 75.15
677.5, 0.1240, 75.16
678.0, 0.1238, 75.19
678.5, 0.1237, 75.21
679.0, 0.1235, 75.24
679.5, 0.1235, 75.25
680.0, 0.1234, 75.27
680.5, 0.1231, 75.32
681.0, 0.1231, 75.32
681.5, 0.1229, 75.35
682.0, 0.1229, 75.36
682.5, 0.1226, 75.41
683.0, 0.1225, 75.43
683.5, 0.1223, 75.45
684.0, 0.1222, 75.47
684.5, 0.1220, 75.50
685.0, 0.1220, 75.52
685.5, 0.1218, 75.54
686.0, 0.1218, 75.55
686.5, 0.1216, 75.59
687.0, 0.1213, 75.63
687.5, 0.1212, 75.65
688.0, 0.1211, 75.66
688.5, 0.1210, 75.68
689.0, 0.1208, 75.71
689.5, 0.1208, 75.72
690.0, 0.1207, 75.74
690.5, 0.1205, 75.77
691.0, 0.1203, 75.80
691.5, 0.1202, 75.82
692.0, 0.1202, 75.83
692.5, 0.1200, 75.86
693.0, 0.1198, 75.88
693.5, 0.1197, 75.91
694.0, 0.1196, 75.92
694.5, 0.1194, 75.96
695.0, 0.1193, 75.98
695.5, 0.1192, 76.00
696.0, 0.1191, 76.01
696.5, 0.1190, 76.03
697.0, 0.1189, 76.05
697.5, 0.1188, 76.07
698.0, 0.1186, 76.10
698.5, 0.1185, 76.12
699.0, 0.1183, 76.15
699.5, 0.1182, 76.17
700.0, 0.1181, 76.19
700.5, 0.1180, 76.22
701.0, 0.1178, 76.24
701.5, 0.1177, 76.26
702.0, 0.1176, 76.28
702.5, 0.1175, 76.30
703.0, 0.1174, 76.32
703.5, 0.1172, 76.34
704.0, 0.1172, 76.35
704.5, 0.1171, 76.37
705.0, 0.1169, 76.41
705.5, 0.1168, 76.42
706.0, 0.1167, 76.44
706.5, 0.1165, 76.47
707.0, 0.1164, 76.49
707.5, 0.1163, 76.51
708.0, 0.1162, 76.53
708.5, 0.1160, 76.55
709.0, 0.1159, 76.58
709.5, 0.1158, 76.60
710.0, 0.1157, 76.62
710.5, 0.1150, 76.74
711.0, 0.1149, 76.76
711.5, 0.1147, 76.78
712.0, 0.1146, 76.80
712.5, 0.1145, 76.82
713.0, 0.1144, 76.84
713.5, 0.1143, 76.86
714.0, 0.1142, 76.87
714.5, 0.1141, 76.89
715.0, 0.1140, 76.91
715.5, 0.1139, 76.93
716.0, 0.1138, 76.94
716.5, 0.1137, 76.97
717.0, 0.1136, 76.98
717.5, 0.1135, 77.01
718.0, 0.1134, 77.01
718.5, 0.1133, 77.04
719.0, 0.1132, 77.05
719.5, 0.1131, 77.07
720.0, 0.1130, 77.10
720.5, 0.1129, 77.10
721.0, 0.1128, 77.13
721.5, 0.1127, 77.14
722.0, 0.1126, 77.16
722.5, 0.1125, 77.17
723.0, 0.1124, 77.19
723.5, 0.1124, 77.20
724.0, 0.1122, 77.23
724.5, 0.1122, 77.23
725.0, 0.1121, 77.25
725.5, 0.1120, 77.28
726.0, 0.1119, 77.29
726.5, 0.1118, 77.30
727.0, 0.1117, 77.32
727.5, 0.1116, 77.34
728.0, 0.1116, 77.35
728.5, 0.1114, 77.37
729.0, 0.1114, 77.38
729.5, 0.1113, 77.40
730.0, 0.1112, 77.41
730.5, 0.1111, 77.42
731.0, 0.1110, 77.44
731.5, 0.1109, 77.46
732.0, 0.1109, 77.47
732.5, 0.1108, 77.49
733.0, 0.1107, 77.50
733.5, 0.1107, 77.51
734.0, 0.1105, 77.53
734.5, 0.1105, 77.54
735.0, 0.1104, 77.55
735.5, 0.1103, 77.57
736.0, 0.1102, 77.58
736.5, 0.1101, 77.60
737.0, 0.1101, 77.61
737.5, 0.1099, 77.64
738.0, 0.1099, 77.64
738.5, 0.1098, 77.66
739.0, 0.1096, 77.69
739.5, 0.1096, 77.70
740.0, 0.1094, 77.73
740.5, 0.1094, 77.74
741.0, 0.1093, 77.75
741.5, 0.1091, 77.78
742.0, 0.1091, 77.78
742.5, 0.1089, 77.82
743.0, 0.1089, 77.83
743.5, 0.1087, 77.86
744.0, 0.1087, 77.86
744.5, 0.1086, 77.88
745.0, 0.1084, 77.90
745.5, 0.1083, 77.92
746.0, 0.1083, 77.93
746.5, 0.1082, 77.96
747.0, 0.1081, 77.96
747.5, 0.1079, 77.99
748.0, 0.1079, 78.01
748.5, 0.1078, 78.03
749.0, 0.1076, 78.05
749.5, 0.1075, 78.07
750.0, 0.1074, 78.09
750.5, 0.1073, 78.11
751.0, 0.1072, 78.12
751.5, 0.1071, 78.14
752.0, 0.1071, 78.15
752.5, 0.1069, 78.18
753.0, 0.1069, 78.19
753.5, 0.1068, 78.21
754.0, 0.1067, 78.21
754.5, 0.1065, 78.24
755.0, 0.1066, 78.24
755.5, 0.1064, 78.27
756.0, 0.1063, 78.29
756.5, 0.1062, 78.30
757.0, 0.1061, 78.33
757.5, 0.1060, 78.34
758.0, 0.1058, 78.38
758.5, 0.1058, 78.39
759.0, 0.1056, 78.41
759.5, 0.1056, 78.42
760.0, 0.1054, 78.45
760.5, 0.1054, 78.46
761.0, 0.1052, 78.48
761.5, 0.1051, 78.50
762.0, 0.1050, 78.52
762.5, 0.1049, 78.54
763.0, 0.1049, 78.55
763.5, 0.1048, 78.57
764.0, 0.1047, 78.58
764.5, 0.1046, 78.60
765.0, 0.1044, 78.63
765.5, 0.1043, 78.65
766.0, 0.1043, 78.65
766.5, 0.1042, 78.67
767.0, 0.1041, 78.69
767.5, 0.1039, 78.72
768.0, 0.1039, 78.72
768.5, 0.1037, 78.75
769.0, 0.1037, 78.76
769.5, 0.1036, 78.78
770.0, 0.1036, 78.78
770.5, 0.1033, 78.82
771.0, 0.1034, 78.82
771.5, 0.1031, 78.86
772.0, 0.1031, 78.87
772.5, 0.1030, 78.89
773.0, 0.1029, 78.90
773.5, 0.1028, 78.91
774.0, 0.1027, 78.94
774.5, 0.1026, 78.96
775.0, 0.1024, 78.99
775.5, 0.1024, 79.00
776.0, 0.1023, 79.01
776.5, 0.1022, 79.03
777.0, 0.1021, 79.04
777.5, 0.1020, 79.07
778.0, 0.1019, 79.08
778.5, 0.1018, 79.11
779.0, 0.1018, 79.11
779.5, 0.1016, 79.14
780.0, 0.1015, 79.16
780.5, 0.1013, 79.19
781.0, 0.1013, 79.19
781.5, 0.1012, 79.21
782.0, 0.1011, 79.24
782.5, 0.1010, 79.25
783.0, 0.1009, 79.27
783.5, 0.1009, 79.28
784.0, 0.1007, 79.31
784.5, 0.1006, 79.32
785.0, 0.1005, 79.34
785.5, 0.1005, 79.34
786.0, 0.1003, 79.37
786.5, 0.1002, 79.39
787.0, 0.1002, 79.40
787.5, 0.1001, 79.42
788.0, 0.1000, 79.44
788.5, 0.0999, 79.46
789.0, 0.0998, 79.47
789.5, 0.0996, 79.50
790.0, 0.0996, 79.51
790.5, 0.0994, 79.54
791.0, 0.0994, 79.55
791.5, 0.0993, 79.57
792.0, 0.0992, 79.58
792.5, 0.0990, 79.61
793.0, 0.0990, 79.61
793.5, 0.0989, 79.64
794.0, 0.0989, 79.64
794.5, 0.0988, 79.66
795.0, 0.0987, 79.68
795.5, 0.0985, 79.70
796.0, 0.0985, 79.71
796.5, 0.0983, 79.74
797.0, 0.0983, 79.74
797.5, 0.0983, 79.75
798.0, 0.0981, 79.78
798.5, 0.0981, 79.78
799.0, 0.0978, 79.83
799.5, 0.0978, 79.83
800.0, 0.0978, 79.84
800.5, 0.0970, 79.98
801.0, 0.0970, 79.98
801.5, 0.0968, 80.01
802.0, 0.0968, 80.01
802.5, 0.0967, 80.04
803.0, 0.0967, 80.04
803.5, 0.0967, 80.04
804.0, 0.0965, 80.07
804.5, 0.0965, 80.08
805.0, 0.0964, 80.10
805.5, 0.0963, 80.11
806.0, 0.0963, 80.12
806.5, 0.0962, 80.13
807.0, 0.0962, 80.13
807.5, 0.0961, 80.16
808.0, 0.0960, 80.16
808.5, 0.0960, 80.18
809.0, 0.0959, 80.20
809.5, 0.0958, 80.20
810.0, 0.0957, 80.22
810.5, 0.0956, 80.24
811.0, 0.0956, 80.24
811.5, 0.0955, 80.25
812.0, 0.0954, 80.27
812.5, 0.0954, 80.28
813.0, 0.0953, 80.29
813.5, 0.0952, 80.32
814.0, 0.0952, 80.32
814.5, 0.0950, 80.35
815.0, 0.0951, 80.34
815.5, 0.0949, 80.37
816.0, 0.0949, 80.37
816.5, 0.0948, 80.39
817.0, 0.0948, 80.40
817.5, 0.0947, 80.42
818.0, 0.0946, 80.43
818.5, 0.0945, 80.44
819.0, 0.0944, 80.46
819.5, 0.0944, 80.46
820.0, 0.0943, 80.49
820.5, 0.0943, 80.48
821.0, 0.0941, 80.51
821.5, 0.0942, 80.50
822.0, 0.0940, 80.54
822.5, 0.0940, 80.54
823.0, 0.0938, 80.57
823.5, 0.0938, 80.57
824.0, 0.0938, 80.57
824.5, 0.0937, 80.60
825.0, 0.0938, 80.58
825.5, 0.0936, 80.61
826.0, 0.0936, 80.62
826.5, 0.0935, 80.63
827.0, 0.0935, 80.62
827.5, 0.0935, 80.64
828.0, 0.0934, 80.66
828.5, 0.0933, 80.67
829.0, 0.0933, 80.68
829.5, 0.0933, 80.67
830.0, 0.0932, 80.68
830.5, 0.0932, 80.68
831.0, 0.0932, 80.69
831.5, 0.0931, 80.70
832.0, 0.0930, 80.73
832.5, 0.0930, 80.72
833.0, 0.0929, 80.74
833.5, 0.0930, 80.73
834.0, 0.0929, 80.75
834.5, 0.0928, 80.76
835.0, 0.0928, 80.77
835.5, 0.0927, 80.79
836.0, 0.0926, 80.79
836.5, 0.0925, 80.81
837.0, 0.0925, 80.82
837.5, 0.0924, 80.84
838.0, 0.0924, 80.84
838.5, 0.0923, 80.85
839.0, 0.0921, 80.88
839.5, 0.0922, 80.87
840.0, 0.0921, 80.90
840.5, 0.0921, 80.90
841.0, 0.0919, 80.92
841.5, 0.0919, 80.92
842.0, 0.0919, 80.92
842.5, 0.0918, 80.94
843.0, 0.0918, 80.95
843.5, 0.0917, 80.96
844.0, 0.0916, 80.98
844.5, 0.0916, 80.99
845.0, 0.0915, 81.01
845.5, 0.0915, 81.01
846.0, 0.0913, 81.03
846.5, 0.0912, 81.05
847.0, 0.0912, 81.05
847.5, 0.0911, 81.08
848.0, 0.0911, 81.07
848.5, 0.0910, 81.10
849.0, 0.0910, 81.10
849.5, 0.0908, 81.12
850.0, 0.0909, 81.12
850.5, 0.0905, 81.19
851.0, 0.0905, 81.20
851.5, 0.0904, 81.21
852.0, 0.0904, 81.21
852.5, 0.0903, 81.23
853.0, 0.0903, 81.24
853.5, 0.0901, 81.26
854.0, 0.0902, 81.25
854.5, 0.0900, 81.28
855.0, 0.0899, 81.30
855.5, 0.0899, 81.30
856.0, 0.0898, 81.31
856.5, 0.0898, 81.33
857.0, 0.0897, 81.35
857.5, 0.0896, 81.35
858.0, 0.0896, 81.36
858.5, 0.0896, 81.36
859.0, 0.0895, 81.38
859.5, 0.0894, 81.39
860.0, 0.0893, 81.41
860.5, 0.0893, 81.41
861.0, 0.0892, 81.43
861.5, 0.0892, 81.44
862.0, 0.0891, 81.45
862.5, 0.0891, 81.46
863.0, 0.0890, 81.47
863.5, 0.0889, 81.49
864.0, 0.0889, 81.50
864.5, 0.0888, 81.51
865.0, 0.0888, 81.51
865.5, 0.0887, 81.53
866.0, 0.0886, 81.54
866.5, 0.0886, 81.55
867.0, 0.0886, 81.55
867.5, 0.0885, 81.57
868.0, 0.0885, 81.57
868.5, 0.0884, 81.58
869.0, 0.0883, 81.61
869.5, 0.0882, 81.62
870.0, 0.0881, 81.63
870.5, 0.0881, 81.64
871.0, 0.0881, 81.64
871.5, 0.0881, 81.65
872.0, 0.0880, 81.67
872.5, 0.0879, 81.68
873.0, 0.0879, 81.68
873.5, 0.0878, 81.69
874.0, 0.0878, 81.70
874.5, 0.0877, 81.72
875.0, 0.0876, 81.72
875.5, 0.0876, 81.73
876.0, 0.0875, 81.75
876.5, 0.0875, 81.75
877.0, 0.0875, 81.76
877.5, 0.0874, 81.77
878.0, 0.0873, 81.78
878.5, 0.0873, 81.78
879.0, 0.0873, 81.80
879.5, 0.0872, 81.81
880.0, 0.0872, 81.81
880.5, 0.0871, 81.83
881.0, 0.0871, 81.83
881.5, 0.0870, 81.85
882.0, 0.0869, 81.86
882.5, 0.0869, 81.86
883.0, 0.0868, 81.89
883.5, 0.0867, 81.90
884.0, 0.0867, 81.91
884.5, 0.0867, 81.90
885.0, 0.0866, 81.92
885.5, 0.0866, 81.92
886.0, 0.0865, 81.93
886.5, 0.0865, 81.94
887.0, 0.0864, 81.95
887.5, 0.0864, 81.95
888.0, 0.0863, 81.97
888.5, 0.0862, 81.99
889.0, 0.0863, 81.98
889.5, 0.0861, 82.01
890.0, 0.0862, 82.00
890.5, 0.0861, 82.02
891.0, 0.0861, 82.02
891.5, 0.0860, 82.03
892.0, 0.0859, 82.05
892.5, 0.0859, 82.06
893.0, 0.0858, 82.07
893.5, 0.0858, 82.06
894.0, 0.0858, 82.08
894.5, 0.0857, 82.09
895.0, 0.0856, 82.11
895.5, 0.0857, 82.09
896.0, 0.0856, 82.11
896.5, 0.0855, 82.13
897.0, 0.0855, 82.14
897.5, 0.0854, 82.14
898.0, 0.0854, 82.15
898.5, 0.0853, 82.16
899.0, 0.0853, 82.17
899.5, 0.0852, 82.19
900.0, 0.0852, 82.18
900.5, 0.0851, 82.20
901.0, 0.0851, 82.20
901.5, 0.0850, 82.22
902.0, 0.0850, 82.23
902.5, 0.0850, 82.23
903.0, 0.0849, 82.24
903.5, 0.0849, 82.25
904.0, 0.0848, 82.27
904.5, 0.0848, 82.27
905.0, 0.0847, 82.27
905.5, 0.0847, 82.28
906.0, 0.0846, 82.30
906.5, 0.0847, 82.28
907.0, 0.0846, 82.30
907.5, 0.0845, 82.31
908.0, 0.0845, 82.32
908.5, 0.0844, 82.33
909.0, 0.0844, 82.33
909.5, 0.0844, 82.34
910.0, 0.0843, 82.35
910.5, 0.0844, 82.35
911.0, 0.0844, 82.35
911.5, 0.0842, 82.37
912.0, 0.0842, 82.38
912.5, 0.0842, 82.38
913.0, 0.0842, 82.38
913.5, 0.0841, 82.40
914.0, 0.0841, 82.40
914.5, 0.0841, 82.40
915.0, 0.0840, 82.40
915.5, 0.0840, 82.40
916.0, 0.0840, 82.41
916.5, 0.0840, 82.42
917.0, 0.0839, 82.43
917.5, 0.0839, 82.43
918.0, 0.0839, 82.42
918.5, 0.0840, 82.42
919.0, 0.0839, 82.43
919.5, 0.0840, 82.42
920.0, 0.0840, 82.42
920.5, 0.0840, 82.42
921.0, 0.0839, 82.42
921.5, 0.0840, 82.42
922.0, 0.0839, 82.43
922.5, 0.0839, 82.43
923.0, 0.0840, 82.41
923.5, 0.0840, 82.42
924.0, 0.0840, 82.42
924.5, 0.0840, 82.42
925.0, 0.0841, 82.40
925.5, 0.0840, 82.41
926.0, 0.0841, 82.40
926.5, 0.0840, 82.41
927.0, 0.0841, 82.39
927.5, 0.0842, 82.38
928.0, 0.0842, 82.37
928.5, 0.0843, 82.36
929.0, 0.0843, 82.35
929.5, 0.0844, 82.33
930.0, 0.0845, 82.32
930.5, 0.0846, 82.29
931.0, 0.0846, 82.29
931.5, 0.0847, 82.28
932.0, 0.0848, 82.27
932.5, 0.0849, 82.24
933.0, 0.0850, 82.23
933.5, 0.0850, 82.22
934.0, 0.0851, 82.20
934.5, 0.0852, 82.19
935.0, 0.0853, 82.16
935.5, 0.0853, 82.16
936.0, 0.0855, 82.13
936.5, 0.0855, 82.13
937.0, 0.0858, 82.08
937.5, 0.0858, 82.07
938.0, 0.0860, 82.04
938.5, 0.0860, 82.04
939.0, 0.0862, 82.00
939.5, 0.0864, 81.96
940.0, 0.0865, 81.94
940.5, 0.0866, 81.92
941.0, 0.0867, 81.91
941.5, 0.0870, 81.85
942.0, 0.0870, 81.84
942.5, 0.0873, 81.79
943.0, 0.0873, 81.79
943.5, 0.0875, 81.76
944.0, 0.0876, 81.74
944.5, 0.0879, 81.68
945.0, 0.0880, 81.65
945.5, 0.0882, 81.63
946.0, 0.0883, 81.61
946.5, 0.0885, 81.57
947.0, 0.0887, 81.52
947.5, 0.0889, 81.48
948.0, 0.0891, 81.45
948.5, 0.0893, 81.42
949.0, 0.0896, 81.36
949.5, 0.0899, 81.31
950.0, 0.0901, 81.27
950.5, 0.0903, 81.23
951.0, 0.0906, 81.18
951.5, 0.0909, 81.11
952.0, 0.0911, 81.07
952.5, 0.0916, 80.99
953.0, 0.0918, 80.94
953.5, 0.0921, 80.89
954.0, 0.0924, 80.84
954.5, 0.0928, 80.76
955.0, 0.0931, 80.71
955.5, 0.0934, 80.66
956.0, 0.0936, 80.61
956.5, 0.0939, 80.56
957.0, 0.0942, 80.50
957.5, 0.0944, 80.47
958.0, 0.0945, 80.45
958.5, 0.0947, 80.42
959.0, 0.0950, 80.36
959.5, 0.0951, 80.33
960.0, 0.0953, 80.30
960.5, 0.0953, 80.30
961.0, 0.0955, 80.26
961.5, 0.0956, 80.24
962.0, 0.0957, 80.23
962.5, 0.0956, 80.24
963.0, 0.0957, 80.23
963.5, 0.0957, 80.22
964.0, 0.0958, 80.21
964.5, 0.0958, 80.20
965.0, 0.0957, 80.21
965.5, 0.0958, 80.20
966.0, 0.0958, 80.21
966.5, 0.0959, 80.19
967.0, 0.0958, 80.21
967.5, 0.0958, 80.21
968.0, 0.0957, 80.22
968.5, 0.0957, 80.21
969.0, 0.0958, 80.21
969.5, 0.0957, 80.22
970.0, 0.0957, 80.22
970.5, 0.0956, 80.24
971.0, 0.0956, 80.23
971.5, 0.0951, 80.34
972.0, 0.0950, 80.35
972.5, 0.0950, 80.36
973.0, 0.0950, 80.36
973.5, 0.0950, 80.36
974.0, 0.0950, 80.35
974.5, 0.0950, 80.35
975.0, 0.0949, 80.37
975.5, 0.0949, 80.36
976.0, 0.0948, 80.38
976.5, 0.0949, 80.37
977.0, 0.0947, 80.41
977.5, 0.0947, 80.41
978.0, 0.0947, 80.42
978.5, 0.0946, 80.43
979.0, 0.0946, 80.43
979.5, 0.0944, 80.46
980.0, 0.0945, 80.45
980.5, 0.0941, 80.52
981.0, 0.0942, 80.50
981.5, 0.0941, 80.52
982.0, 0.0941, 80.53
982.5, 0.0939, 80.55
983.0, 0.0938, 80.57
983.5, 0.0937, 80.59
984.0, 0.0937, 80.59
984.5, 0.0935, 80.63
985.0, 0.0934, 80.65
985.5, 0.0933, 80.67
986.0, 0.0931, 80.70
986.5, 0.0931, 80.71
987.0, 0.0929, 80.75
987.5, 0.0928, 80.75
988.0, 0.0927, 80.79
988.5, 0.0927, 80.79
989.0, 0.0925, 80.82
989.5, 0.0923, 80.86
990.0, 0.0922, 80.87
990.5, 0.0919, 80.92
991.0, 0.0920, 80.92
991.5, 0.0917, 80.96
992.0, 0.0917, 80.97
992.5, 0.0915, 81.01
993.0, 0.0914, 81.03
993.5, 0.0913, 81.04
994.0, 0.0911, 81.08
994.5, 0.0910, 81.10
995.0, 0.0907, 81.15
995.5, 0.0906, 81.17
996.0, 0.0905, 81.20
996.5, 0.0903, 81.22
997.0, 0.0902, 81.24
997.5, 0.0901, 81.27
998.0, 0.0900, 81.28
998.5, 0.0898, 81.32
999.0, 0.0896, 81.36
999.5, 0.0895, 81.38
1000.0, 0.0892, 81.44
1000.5, 0.0891, 81.46
1001.0, 0.0888, 81.50
1001.5, 0.0887, 81.53
1002.0, 0.0885, 81.57
1002.5, 0.0883, 81.60
1003.0, 0.0883, 81.61
1003.5, 0.0882, 81.62
1004.0, 0.0879, 81.67
1004.5, 0.0877, 81.72
1005.0, 0.0875, 81.75
1005.5, 0.0874, 81.78
1006.0, 0.0871, 81.82
1006.5, 0.0871, 81.84
1007.0, 0.0869, 81.86
1007.5, 0.0867, 81.91
1008.0, 0.0866, 81.91
1008.5, 0.0864, 81.96
1009.0, 0.0862, 81.99
1009.5, 0.0861, 82.01
1010.0, 0.0859, 82.06
1010.5, 0.0857, 82.09
1011.0, 0.0855, 82.14
1011.5, 0.0853, 82.17
1012.0, 0.0852, 82.18
1012.5, 0.0850, 82.22
1013.0, 0.0849, 82.24
1013.5, 0.0846, 82.30
1014.0, 0.0845, 82.32
1014.5, 0.0841, 82.40
1015.0, 0.0841, 82.39
1015.5, 0.0834, 82.53
1016.0, 0.0833, 82.55
1016.5, 0.0831, 82.58
1017.0, 0.0829, 82.61
1017.5, 0.0829, 82.63
1018.0, 0.0828, 82.65
1018.5, 0.0825, 82.70
1019.0, 0.0824, 82.71
1019.5, 0.0823, 82.74
1020.0, 0.0821, 82.78
1020.5, 0.0820, 82.79
1021.0, 0.0817, 82.85
1021.5, 0.0818, 82.83
1022.0, 0.0815, 82.89
1022.5, 0.0816, 82.87
1023.0, 0.0813, 82.93
1023.5, 0.0812, 82.95
1024.0, 0.0810, 82.98
1024.5, 0.0807, 83.04
1025.0, 0.0808, 83.03
1025.5, 0.0803, 83.11
1026.0, 0.0803, 83.11
1026.5, 0.0801, 83.15
1027.0, 0.0801, 83.16
1027.5, 0.0799, 83.19
1028.0, 0.0797, 83.24
1028.5, 0.0797, 83.24
1029.0, 0.0794, 83.29
1029.5, 0.0794, 83.30
1030.0, 0.0791, 83.34
1030.5, 0.0791, 83.35
1031.0, 0.0789, 83.38
1031.5, 0.0788, 83.41
1032.0, 0.0787, 83.42
1032.5, 0.0785, 83.46
1033.0, 0.0785, 83.47
1033.5, 0.0783, 83.50
1034.0, 0.0781, 83.53
1034.5, 0.0780, 83.55
1035.0, 0.0778, 83.60
1035.5, 0.0777, 83.61
1036.0, 0.0777, 83.62
1036.5, 0.0775, 83.66
1037.0, 0.0775, 83.66
1037.5, 0.0772, 83.71
1038.0, 0.0771, 83.73
1038.5, 0.0770, 83.75
1039.0, 0.0767, 83.81
1039.5, 0.0767, 83.82
1040.0, 0.0764, 83.87
1040.5, 0.0764, 83.87
1041.0, 0.0762, 83.90
1041.5, 0.0761, 83.92
1042.0, 0.0761, 83.92
1042.5, 0.0760, 83.95
1043.0, 0.0759, 83.96
1043.5, 0.0757, 84.00
1044.0, 0.0756, 84.02
1044.5, 0.0756, 84.03
1045.0, 0.0753, 84.08
1045.5, 0.0753, 84.08
1046.0, 0.0752, 84.09
1046.5, 0.0745, 84.25
1047.0, 0.0746, 84.22
1047.5, 0.0745, 84.23
1048.0, 0.0745, 84.24
1048.5, 0.0744, 84.26
1049.0, 0.0743, 84.28
1049.5, 0.0742, 84.29
1050.0, 0.0742, 84.30
1050.5, 0.0742, 84.30
1051.0, 0.0741, 84.32
1051.5, 0.0741, 84.32
1052.0, 0.0740, 84.33
1052.5, 0.0740, 84.34
1053.0, 0.0738, 84.36
1053.5, 0.0737, 84.39
1054.0, 0.0736, 84.41
1054.5, 0.0736, 84.41
1055.0, 0.0735, 84.44
1055.5, 0.0735, 84.42
1056.0, 0.0735, 84.42
1056.5, 0.0735, 84.43
1057.0, 0.0734, 84.45
1057.5, 0.0733, 84.48
1058.0, 0.0731, 84.51
1058.5, 0.0730, 84.53
1059.0, 0.0729, 84.54
1059.5, 0.0729, 84.55
1060.0, 0.0730, 84.53
1060.5, 0.0727, 84.58
1061.0, 0.0728, 84.58
1061.5, 0.0725, 84.62
1062.0, 0.0727, 84.59
1062.5, 0.0725, 84.62
1063.0, 0.0725, 84.63
1063.5, 0.0724, 84.64
1064.0, 0.0723, 84.67
1064.5, 0.0725, 84.63
1065.0, 0.0724, 84.65
1065.5, 0.0725, 84.62
1066.0, 0.0723, 84.66
1066.5, 0.0723, 84.66
1067.0, 0.0724, 84.64
1067.5, 0.0723, 84.67
1068.0, 0.0722, 84.69
1068.5, 0.0721, 84.71
1069.0, 0.0721, 84.70
1069.5, 0.0720, 84.72
1070.0, 0.0721, 84.69
1070.5, 0.0721, 84.70
1071.0, 0.0721, 84.71
1071.5, 0.0721, 84.71
1072.0, 0.0720, 84.72
1072.5, 0.0714, 84.84
1073.0, 0.0714, 84.85
1073.5, 0.0714, 84.85
1074.0, 0.0713, 84.85
1074.5, 0.0714, 84.84
1075.0, 0.0714, 84.85
1075.5, 0.0715, 84.81
1076.0, 0.0715, 84.83
1076.5, 0.0715, 84.81
1077.0, 0.0715, 84.82
1077.5, 0.0714, 84.84
1078.0, 0.0714, 84.83
1078.5, 0.0713, 84.85
1079.0, 0.0715, 84.82
1079.5, 0.0715, 84.82
1080.0, 0.0716, 84.80
1080.5, 0.0714, 84.83
1081.0, 0.0716, 84.79
1081.5, 0.0718, 84.77
1082.0, 0.0718, 84.77
1082.5, 0.0718, 84.76
1083.0, 0.0717, 84.78
1083.5, 0.0721, 84.71
1084.0, 0.0722, 84.68
1084.5, 0.0726, 84.61
1085.0, 0.0728, 84.57
1085.5, 0.0731, 84.50
1086.0, 0.0729, 84.54
1086.5, 0.0730, 84.53
1087.0, 0.0730, 84.53
1087.5, 0.0727, 84.59
1088.0, 0.0725, 84.63
1088.5, 0.0725, 84.62
1089.0, 0.0727, 84.58
1089.5, 0.0729, 84.55
1090.0, 0.0730, 84.54
1090.5, 0.0728, 84.58
1091.0, 0.0728, 84.56
1091.5, 0.0729, 84.54
1092.0, 0.0729, 84.54
1092.5, 0.0727, 84.59
1093.0, 0.0727, 84.58
1093.5, 0.0731, 84.51
1094.0, 0.0731, 84.52
1094.5, 0.0734, 84.44
1095.0, 0.0735, 84.42
1095.5, 0.0738, 84.37
1096.0, 0.0744, 84.25
1096.5, 0.0750, 84.14
1097.0, 0.0755, 84.04
1097.5, 0.0779, 83.58
1098.0, 0.0788, 83.40
1098.5, 0.0799, 83.19
1099.0, 0.0808, 83.01
1099.5, 0.0811, 82.96
1100.0, 0.0812, 82.95
