Sample Name, Sample-1
Time, March 20 14:20:27 2023
Operator, Smith
Lamp, 0
Slit,0.0
Scan From, 1100.0nm
Scan To, 190.0nm
Scan Step, 0.5nm
Sample Filter, 5
memo, 
WL(nm), Abs, T%
190.0, 0.1503, 70.74
190.5, 0.1471, 71.26
191.0, 0.1447, 71.67
191.5, 0.1421, 72.09
192.0, 0.1401, 72.42
192.5, 0.1380, 72.77
193.0, 0.1358, 73.14
193.5, 0.1342, 73.41
194.0, 0.1316, 73.85
194.5, 0.1299, 74.15
195.0, 0.1282, 74.44
195.5, 0.1263, 74.76
196.0, 0.1248, 75.02
196.5, 0.1230, 75.34
197.0, 0.1214, 75.62
197.5, 0.1195, 75.95
198.0, 0.1178, 76.25
198.5, 0.1156, 76.63
199.0, 0.1134, 77.01
199.5, 0.1118, 77.30
200.0, 0.1098, 77.66
200.5, 0.1079, 78.00
201.0, 0.1062, 78.30
201.5, 0.1043, 78.65
202.0, 0.1025, 78.97
202.5, 0.1007, 79.31
203.0, 0.0988, 79.65
203.5, 0.0970, 79.98
204.0, 0.0952, 80.32
204.5, 0.0936, 80.62
205.0, 0.0919, 80.92
205.5, 0.0905, 81.19
206.0, 0.0891, 81.46
206.5, 0.0875, 81.76
207.0, 0.0861, 82.01
207.5, 0.0847, 82.28
208.0, 0.0831, 82.58
208.5, 0.0818, 82.83
209.0, 0.0807, 83.05
209.5, 0.0794, 83.28
210.0, 0.0784, 83.49
210.5, 0.0773, 83.70
211.0, 0.0762, 83.91
211.5, 0.0754, 84.07
212.0, 0.0745, 84.25
212.5, 0.0735, 84.42
213.0, 0.0727, 84.59
213.5, 0.0716, 84.79
214.0, 0.0709, 84.93
214.5, 0.0702, 85.07
215.0, 0.0695, 85.20
215.5, 0.0690, 85.30
216.0, 0.0684, 85.43
216.5, 0.0680, 85.51
217.0, 0.0674, 85.62
217.5, 0.0671, 85.68
218.0, 0.0667, 85.77
218.5, 0.0663, 85.84
219.0, 0.0659, 85.92
219.5, 0.0655, 86.00
220.0, 0.0653, 86.04
220.5, 0.0650, 86.10
221.0, 0.0650, 86.10
221.5, 0.0648, 86.15
222.0, 0.0647, 86.16
222.5, 0.0646, 86.18
223.0, 0.0642, 86.25
223.5, 0.0642, 86.27
224.0, 0.0640, 86.29
224.5, 0.0639, 86.32
225.0, 0.0639, 86.32
225.5, 0.0637, 86.36
226.0, 0.0635, 86.39
226.5, 0.0635, 86.39
227.0, 0.0634, 86.42
227.5, 0.0633, 86.44
228.0, 0.0630, 86.50
228.5, 0.0628, 86.53
229.0, 0.0627, 86.57
229.5, 0.0624, 86.62
230.0, 0.0623, 86.64
230.5, 0.0621, 86.68
231.0, 0.0619, 86.71
231.5, 0.0618, 86.73
232.0, 0.0615, 86.80
232.5, 0.0610, 86.89
233.0, 0.0607, 86.96
233.5, 0.0605, 86.99
234.0, 0.0602, 87.06
234.5, 0.0599, 87.12
235.0, 0.0597, 87.16
235.5, 0.0593, 87.23
236.0, 0.0591, 87.28
236.5, 0.0587, 87.35
237.0, 0.0583, 87.43
237.5, 0.0579, 87.51
238.0, 0.0576, 87.59
238.5, 0.0573, 87.65
239.0, 0.0569, 87.72
239.5, 0.0566, 87.79
240.0, 0.0562, 87.86
240.5, 0.0559, 87.92
241.0, 0.0556, 87.98
241.5, 0.0552, 88.07
242.0, 0.0549, 88.14
242.5, 0.0545, 88.22
243.0, 0.0541, 88.29
243.5, 0.0537, 88.37
244.0, 0.0534, 88.42
244.5, 0.0530, 88.51
245.0, 0.0528, 88.56
245.5, 0.0525, 88.62
246.0, 0.0521, 88.69
246.5, 0.0517, 88.77
247.0, 0.0514, 88.83
247.5, 0.0511, 88.91
248.0, 0.0508, 88.97
248.5, 0.0505, 89.03
249.0, 0.0502, 89.09
249.5, 0.0499, 89.14
250.0, 0.0497, 89.19
250.5, 0.0495, 89.22
251.0, 0.0491, 89.30
251.5, 0.0488, 89.36
252.0, 0.0485, 89.43
252.5, 0.0483, 89.47
253.0, 0.0481, 89.52
253.5, 0.0479, 89.55
254.0, 0.0477, 89.61
254.5, 0.0470, 89.75
255.0, 0.0468, 89.77
255.5, 0.0468, 89.79
256.0, 0.0465, 89.85
256.5, 0.0463, 89.89
257.0, 0.0461, 89.93
257.5, 0.0458, 89.98
258.0, 0.0457, 90.01
258.5, 0.0456, 90.04
259.0, 0.0453, 90.09
259.5, 0.0452, 90.12
260.0, 0.0452, 90.12
260.5, 0.0451, 90.14
261.0, 0.0449, 90.19
261.5, 0.0446, 90.24
262.0, 0.0444, 90.28
262.5, 0.0442, 90.31
263.0, 0.0441, 90.34
263.5, 0.0441, 90.34
264.0, 0.0439, 90.39
264.5, 0.0439, 90.39
265.0, 0.0438, 90.41
265.5, 0.0436, 90.45
266.0, 0.0435, 90.47
266.5, 0.0434, 90.49
267.0, 0.0432, 90.53
267.5, 0.0431, 90.56
268.0, 0.0429, 90.58
268.5, 0.0428, 90.61
269.0, 0.0427, 90.64
269.5, 0.0426, 90.65
270.0, 0.0428, 90.61
270.5, 0.0426, 90.66
271.0, 0.0423, 90.71
271.5, 0.0422, 90.75
272.0, 0.0421, 90.76
272.5, 0.0420, 90.78
273.0, 0.0420, 90.79
273.5, 0.0420, 90.79
274.0, 0.0419, 90.80
274.5, 0.0419, 90.81
275.0, 0.0419, 90.81
275.5, 0.0418, 90.82
276.0, 0.0417, 90.85
276.5, 0.0416, 90.87
277.0, 0.0414, 90.90
277.5, 0.0415, 90.89
278.0, 0.0414, 90.92
278.5, 0.0414, 90.91
279.0, 0.0414, 90.91
279.5, 0.0414, 90.92
280.0, 0.0413, 90.93
280.5, 0.0412, 90.95
281.0, 0.0411, 90.98
281.5, 0.0410, 90.99
282.0, 0.0409, 91.00
282.5, 0.0409, 91.01
283.0, 0.0408, 91.02
283.5, 0.0409, 91.00
284.0, 0.0409, 91.02
284.5, 0.0408, 91.03
285.0, 0.0407, 91.05
285.5, 0.0407, 91.06
286.0, 0.0406, 91.08
286.5, 0.0405, 91.09
287.0, 0.0404, 91.11
287.5, 0.0405, 91.11
288.0, 0.0404, 91.11
288.5, 0.0404, 91.11
289.0, 0.0404, 91.11
289.5, 0.0403, 91.14
290.0, 0.0403, 91.14
290.5, 0.0403, 91.14
291.0, 0.0401, 91.19
291.5, 0.0401, 91.19
292.0, 0.0399, 91.21
292.5, 0.0400, 91.20
293.0, 0.0400, 91.20
293.5, 0.0400, 91.20
294.0, 0.0400, 91.21
294.5, 0.0400, 91.21
295.0, 0.0399, 91.22
295.5, 0.0398, 91.24
296.0, 0.0398, 91.23
296.5, 0.0398, 91.25
297.0, 0.0397, 91.26
297.5, 0.0397, 91.27
298.0, 0.0397, 91.26
298.5, 0.0398, 91.25
299.0, 0.0398, 91.24
299.5, 0.0398, 91.25
300.0, 0.0397, 91.26
300.5, 0.0396, 91.30
301.0, 0.0395, 91.31
301.5, 0.0395, 91.31
302.0, 0.0394, 91.32
302.5, 0.0394, 91.32
303.0, 0.0394, 91.32
303.5, 0.0395, 91.30
304.0, 0.0393, 91.34
304.5, 0.0394, 91.34
305.0, 0.0393, 91.35
305.5, 0.0392, 91.38
306.0, 0.0391, 91.39
306.5, 0.0392, 91.38
307.0, 0.0391, 91.38
307.5, 0.0391, 91.39
308.0, 0.0391, 91.40
308.5, 0.0391, 91.38
309.0, 0.0391, 91.40
309.5, 0.0390, 91.41
310.0, 0.0389, 91.44
310.5, 0.0388, 91.46
311.0, 0.0388, 91.46
311.5, 0.0387, 91.47
312.0, 0.0388, 91.46
312.5, 0.0386, 91.49
313.0, 0.0386, 91.49
313.5, 0.0388, 91.46
314.0, 0.0387, 91.47
314.5, 0.0386, 91.49
315.0, 0.0385, 91.52
315.5, 0.0383, 91.55
316.0, 0.0384, 91.54
316.5, 0.0383, 91.56
317.0, 0.0383, 91.56
317.5, 0.0384, 91.54
318.0, 0.0384, 91.53
318.5, 0.0384, 91.55
319.0, 0.0383, 91.56
319.5, 0.0383, 91.55
320.0, 0.0382, 91.59
320.5, 0.0380, 91.62
321.0, 0.0380, 91.61
321.5, 0.0380, 91.62
322.0, 0.0380, 91.62
322.5, 0.0381, 91.60
323.0, 0.0381, 91.59
323.5, 0.0381, 91.61
324.0, 0.0379, 91.64
324.5, 0.0378, 91.65
325.0, 0.0378, 91.66
325.5, 0.0377, 91.68
326.0, 0.0378, 91.67
326.5, 0.0377, 91.68
327.0, 0.0376, 91.70
327.5, 0.0377, 91.68
328.0, 0.0378, 91.66
328.5, 0.0377, 91.69
329.0, 0.0376, 91.72
329.5, 0.0375, 91.72
330.0, 0.0374, 91.74
330.5, 0.0374, 91.75
331.0, 0.0375, 91.73
331.5, 0.0374, 91.75
332.0, 0.0374, 91.75
332.5, 0.0375, 91.73
333.0, 0.0375, 91.73
333.5, 0.0373, 91.77
334.0, 0.0372, 91.79
334.5, 0.0372, 91.80
335.0, 0.0369, 91.85
335.5, 0.0371, 91.81
336.0, 0.0372, 91.80
336.5, 0.0370, 91.83
337.0, 0.0371, 91.80
337.5, 0.0371, 91.82
338.0, 0.0372, 91.79
338.5, 0.0370, 91.83
339.0, 0.0370, 91.83
339.5, 0.0371, 91.81
340.0, 0.0369, 91.86
340.5, 0.0370, 91.83
341.0, 0.0370, 91.82
341.5, 0.0370, 91.83
342.0, 0.0371, 91.82
342.5, 0.0372, 91.79
343.0, 0.0372, 91.79
343.5, 0.0370, 91.82
344.0, 0.0368, 91.87
344.5, 0.0368, 91.88
345.0, 0.0368, 91.88
345.5, 0.0367, 91.91
346.0, 0.0367, 91.90
346.5, 0.0367, 91.90
347.0, 0.0368, 91.88
347.5, 0.0367, 91.89
348.0, 0.0367, 91.89
348.5, 0.0366, 91.91
349.0, 0.0365, 91.94
349.5, 0.0365, 91.95
350.0, 0.0364, 91.95
350.5, 0.0363, 91.97
351.0, 0.0363, 91.98
351.5, 0.0363, 91.98
352.0, 0.0363, 91.97
352.5, 0.0365, 91.94
353.0, 0.0365, 91.95
353.5, 0.0362, 92.00
354.0, 0.0362, 92.01
354.5, 0.0362, 92.01
355.0, 0.0360, 92.04
355.5, 0.0360, 92.04
356.0, 0.0359, 92.06
356.5, 0.0360, 92.05
357.0, 0.0360, 92.05
357.5, 0.0360, 92.04
358.0, 0.0359, 92.06
358.5, 0.0359, 92.07
359.0, 0.0357, 92.10
359.5, 0.0357, 92.10
360.0, 0.0357, 92.11
360.5, 0.0356, 92.13
361.0, 0.0357, 92.12
361.5, 0.0357, 92.11
362.0, 0.0357, 92.10
362.5, 0.0356, 92.12
363.0, 0.0355, 92.14
363.5, 0.0356, 92.13
364.0, 0.0355, 92.15
364.5, 0.0354, 92.17
365.0, 0.0352, 92.21
365.5, 0.0353, 92.19
366.0, 0.0355, 92.15
366.5, 0.0356, 92.14
367.0, 0.0354, 92.16
367.5, 0.0354, 92.17
368.0, 0.0354, 92.18
368.5, 0.0353, 92.20
369.0, 0.0353, 92.20
369.5, 0.0349, 92.28
370.0, 0.0351, 92.23
370.5, 0.0350, 92.25
371.0, 0.0351, 92.23
371.5, 0.0353, 92.20
372.0, 0.0351, 92.23
372.5, 0.0351, 92.23
373.0, 0.0351, 92.25
373.5, 0.0350, 92.26
374.0, 0.0350, 92.25
374.5, 0.0350, 92.25
375.0, 0.0349, 92.28
375.5, 0.0350, 92.26
376.0, 0.0350, 92.26
376.5, 0.0351, 92.24
377.0, 0.0351, 92.24
377.5, 0.0351, 92.24
378.0, 0.0350, 92.26
378.5, 0.0351, 92.24
379.0, 0.0350, 92.26
379.5, 0.0348, 92.29
380.0, 0.0349, 92.28
380.5, 0.0349, 92.28
381.0, 0.0350, 92.25
381.5, 0.0350, 92.25
382.0, 0.0350, 92.26
382.5, 0.0349, 92.29
383.0, 0.0349, 92.28
383.5, 0.0350, 92.27
384.0, 0.0349, 92.29
384.5, 0.0347, 92.32
385.0, 0.0347, 92.31
385.5, 0.0348, 92.30
386.0, 0.0349, 92.27
386.5, 0.0349, 92.28
387.0, 0.0348, 92.30
387.5, 0.0347, 92.32
388.0, 0.0347, 92.31
388.5, 0.0347, 92.31
389.0, 0.0347, 92.33
389.5, 0.0346, 92.33
390.0, 0.0347, 92.32
390.5, 0.0348, 92.29
391.0, 0.0349, 92.29
391.5, 0.0348, 92.30
392.0, 0.0347, 92.32
392.5, 0.0346, 92.33
393.0, 0.0347, 92.32
393.5, 0.0348, 92.31
394.0, 0.0346, 92.33
394.5, 0.0346, 92.33
395.0, 0.0346, 92.34
395.5, 0.0347, 92.33
396.0, 0.0347, 92.32
396.5, 0.0347, 92.31
397.0, 0.0347, 92.33
397.5, 0.0346, 92.35
398.0, 0.0346, 92.34
398.5, 0.0347, 92.33
399.0, 0.0346, 92.34
399.5, 0.0345, 92.36
400.0, 0.0346, 92.35
400.5, 0.0345, 92.36
401.0, 0.0346, 92.35
401.5, 0.0345, 92.36
402.0, 0.0345, 92.36
402.5, 0.0345, 92.36
403.0, 0.0345, 92.35
403.5, 0.0345, 92.37
404.0, 0.0345, 92.37
404.5, 0.0345, 92.37
405.0, 0.0345, 92.36
405.5, 0.0345, 92.35
406.0, 0.0346, 92.34
406.5, 0.0345, 92.36
407.0, 0.0344, 92.38
407.5, 0.0344, 92.38
408.0, 0.0345, 92.36
408.5, 0.0345, 92.37
409.0, 0.0344, 92.39
409.5, 0.0344, 92.39
410.0, 0.0344, 92.39
410.5, 0.0344, 92.38
411.0, 0.0344, 92.39
411.5, 0.0343, 92.40
412.0, 0.0344, 92.38
412.5, 0.0344, 92.38
413.0, 0.0344, 92.39
413.5, 0.0344, 92.39
414.0, 0.0343, 92.41
414.5, 0.0344, 92.39
415.0, 0.0343, 92.40
415.5, 0.0344, 92.38
416.0, 0.0343, 92.40
416.5, 0.0343, 92.40
417.0, 0.0343, 92.42
417.5, 0.0343, 92.41
418.0, 0.0342, 92.42
418.5, 0.0342, 92.42
419.0, 0.0342, 92.42
419.5, 0.0342, 92.43
420.0, 0.0342, 92.43
420.5, 0.0343, 92.42
421.0, 0.0342, 92.42
421.5, 0.0342, 92.42
422.0, 0.0342, 92.43
422.5, 0.0342, 92.44
423.0, 0.0341, 92.45
423.5, 0.0341, 92.45
424.0, 0.0341, 92.44
424.5, 0.0342, 92.43
425.0, 0.0342, 92.43
425.5, 0.0342, 92.44
426.0, 0.0341, 92.44
426.5, 0.0341, 92.45
427.0, 0.0340, 92.46
427.5, 0.0341, 92.46
428.0, 0.0340, 92.47
428.5, 0.0341, 92.45
429.0, 0.0341, 92.46
429.5, 0.0341, 92.46
430.0, 0.0341, 92.46
430.5, 0.0340, 92.46
431.0, 0.0340, 92.47
431.5, 0.0340, 92.47
432.0, 0.0339, 92.49
432.5, 0.0340, 92.48
433.0, 0.0339, 92.49
433.5, 0.0340, 92.48
434.0, 0.0340, 92.47
434.5, 0.0340, 92.47
435.0, 0.0340, 92.47
435.5, 0.0340, 92.48
436.0, 0.0339, 92.50
436.5, 0.0339, 92.49
437.0, 0.0339, 92.50
437.5, 0.0338, 92.51
438.0, 0.0339, 92.49
438.5, 0.0339, 92.50
439.0, 0.0339, 92.49
439.5, 0.0339, 92.48
440.0, 0.0339, 92.50
440.5, 0.0339, 92.49
441.0, 0.0339, 92.49
441.5, 0.0339, 92.50
442.0, 0.0338, 92.50
442.5, 0.0338, 92.50
443.0, 0.0338, 92.52
443.5, 0.0338, 92.50
444.0, 0.0338, 92.51
444.5, 0.0339, 92.49
445.0, 0.0338, 92.52
445.5, 0.0338, 92.52
446.0, 0.0338, 92.52
446.5, 0.0337, 92.53
447.0, 0.0337, 92.54
447.5, 0.0337, 92.54
448.0, 0.0337, 92.53
448.5, 0.0338, 92.51
449.0, 0.0337, 92.52
449.5, 0.0338, 92.52
450.0, 0.0337, 92.52
450.5, 0.0339, 92.48
451.0, 0.0340, 92.47
451.5, 0.0339, 92.48
452.0, 0.0339, 92.50
452.5, 0.0339, 92.49
453.0, 0.0338, 92.52
453.5, 0.0338, 92.51
454.0, 0.0339, 92.49
454.5, 0.0337, 92.53
455.0, 0.0337, 92.53
455.5, 0.0337, 92.52
456.0, 0.0338, 92.51
456.5, 0.0338, 92.51
457.0, 0.0337, 92.52
457.5, 0.0337, 92.52
458.0, 0.0338, 92.52
458.5, 0.0337, 92.53
459.0, 0.0337, 92.53
459.5, 0.0337, 92.54
460.0, 0.0337, 92.54
460.5, 0.0337, 92.53
461.0, 0.0338, 92.52
461.5, 0.0337, 92.54
462.0, 0.0337, 92.53
462.5, 0.0337, 92.53
463.0, 0.0336, 92.55
463.5, 0.0336, 92.55
464.0, 0.0336, 92.56
464.5, 0.0335, 92.57
465.0, 0.0336, 92.55
465.5, 0.0337, 92.54
466.0, 0.0337, 92.54
466.5, 0.0336, 92.55
467.0, 0.0336, 92.56
467.5, 0.0335, 92.58
468.0, 0.0336, 92.56
468.5, 0.0336, 92.56
469.0, 0.0335, 92.58
469.5, 0.0335, 92.58
470.0, 0.0336, 92.56
470.5, 0.0335, 92.57
471.0, 0.0335, 92.58
471.5, 0.0335, 92.57
472.0, 0.0335, 92.58
472.5, 0.0335, 92.57
473.0, 0.0335, 92.58
473.5, 0.0335, 92.58
474.0, 0.0334, 92.59
474.5, 0.0334, 92.59
475.0, 0.0335, 92.58
475.5, 0.0335, 92.58
476.0, 0.0335, 92.58
476.5, 0.0334, 92.60
477.0, 0.0334, 92.59
477.5, 0.0334, 92.59
478.0, 0.0334, 92.60
478.5, 0.0334, 92.60
479.0, 0.0334, 92.60
479.5, 0.0334, 92.61
480.0, 0.0334, 92.60
480.5, 0.0334, 92.59
481.0, 0.0334, 92.60
481.5, 0.0334, 92.60
482.0, 0.0333, 92.61
482.5, 0.0333, 92.61
483.0, 0.0334, 92.60
483.5, 0.0333, 92.62
484.0, 0.0333, 92.61
484.5, 0.0332, 92.63
485.0, 0.0334, 92.60
485.5, 0.0333, 92.62
486.0, 0.0333, 92.63
486.5, 0.0332, 92.63
487.0, 0.0333, 92.62
487.5, 0.0332, 92.65
488.0, 0.0332, 92.63
488.5, 0.0332, 92.64
489.0, 0.0333, 92.62
489.5, 0.0332, 92.64
490.0, 0.0332, 92.64
490.5, 0.0332, 92.65
491.0, 0.0332, 92.63
491.5, 0.0332, 92.64
492.0, 0.0332, 92.65
492.5, 0.0332, 92.63
493.0, 0.0331, 92.66
493.5, 0.0331, 92.66
494.0, 0.0331, 92.65
494.5, 0.0331, 92.66
495.0, 0.0331, 92.66
495.5, 0.0331, 92.67
496.0, 0.0331, 92.66
496.5, 0.0331, 92.66
497.0, 0.0331, 92.67
497.5, 0.0331, 92.67
498.0, 0.0330, 92.67
498.5, 0.0331, 92.66
499.0, 0.0330, 92.67
499.5, 0.0331, 92.66
500.0, 0.0330, 92.68
500.5, 0.0331, 92.67
501.0, 0.0330, 92.68
501.5, 0.0330, 92.69
502.0, 0.0329, 92.69
502.5, 0.0329, 92.69
503.0, 0.0329, 92.70
503.5, 0.0330, 92.69
504.0, 0.0330, 92.69
504.5, 0.0330, 92.68
505.0, 0.0329, 92.70
505.5, 0.0329, 92.70
506.0, 0.0330, 92.69
506.5, 0.0329, 92.69
507.0, 0.0330, 92.69
507.5, 0.0330, 92.69
508.0, 0.0330, 92.68
508.5, 0.0329, 92.70
509.0, 0.0330, 92.68
509.5, 0.0329, 92.70
510.0, 0.0329, 92.70
510.5, 0.0329, 92.71
511.0, 0.0331, 92.67
511.5, 0.0330, 92.69
512.0, 0.0330, 92.68
512.5, 0.0329, 92.70
513.0, 0.0330, 92.69
513.5, 0.0330, 92.69
514.0, 0.0329, 92.71
514.5, 0.0329, 92.70
515.0, 0.0329, 92.70
515.5, 0.0329, 92.71
516.0, 0.0329, 92.71
516.5, 0.0329, 92.70
517.0, 0.0328, 92.72
517.5, 0.0328, 92.72
518.0, 0.0328, 92.72
518.5, 0.0329, 92.71
519.0, 0.0329, 92.71
519.5, 0.0329, 92.71
520.0, 0.0328, 92.72
520.5, 0.0328, 92.72
521.0, 0.0328, 92.73
521.5, 0.0328, 92.72
522.0, 0.0328, 92.72
522.5, 0.0328, 92.72
523.0, 0.0327, 92.74
523.5, 0.0328, 92.72
524.0, 0.0328, 92.73
524.5, 0.0328, 92.72
525.0, 0.0328, 92.73
525.5, 0.0327, 92.74
526.0, 0.0327, 92.74
526.5, 0.0327, 92.74
527.0, 0.0328, 92.74
527.5, 0.0327, 92.74
528.0, 0.0327, 92.74
528.5, 0.0328, 92.74
529.0, 0.0328, 92.72
529.5, 0.0328, 92.73
530.0, 0.0328, 92.73
530.5, 0.0328, 92.73
531.0, 0.0328, 92.73
531.5, 0.0328, 92.72
532.0, 0.0328, 92.73
532.5, 0.0328, 92.74
533.0, 0.0327, 92.75
533.5, 0.0327, 92.75
534.0, 0.0327, 92.75
534.5, 0.0327, 92.75
535.0, 0.0327, 92.75
535.5, 0.0326, 92.76
536.0, 0.0327, 92.75
536.5, 0.0327, 92.74
537.0, 0.0326, 92.76
537.5, 0.0326, 92.76
538.0, 0.0326, 92.76
538.5, 0.0327, 92.75
539.0, 0.0327, 92.74
539.5, 0.0326, 92.77
540.0, 0.0327, 92.76
540.5, 0.0326, 92.76
541.0, 0.0326, 92.77
541.5, 0.0326, 92.77
542.0, 0.0327, 92.75
542.5, 0.0326, 92.76
543.0, 0.0326, 92.76
543.5, 0.0327, 92.75
544.0, 0.0326, 92.76
544.5, 0.0326, 92.77
545.0, 0.0325, 92.79
545.5, 0.0325, 92.79
546.0, 0.0326, 92.77
546.5, 0.0325, 92.78
547.0, 0.0325, 92.78
547.5, 0.0326, 92.77
548.0, 0.0326, 92.77
548.5, 0.0326, 92.78
549.0, 0.0325, 92.78
549.5, 0.0325, 92.78
550.0, 0.0325, 92.79
550.5, 0.0325, 92.78
551.0, 0.0325, 92.79
551.5, 0.0325, 92.79
552.0, 0.0325, 92.79
552.5, 0.0325, 92.79
553.0, 0.0325, 92.79
553.5, 0.0325, 92.79
554.0, 0.0325, 92.78
554.5, 0.0325, 92.80
555.0, 0.0325, 92.79
555.5, 0.0324, 92.81
556.0, 0.0325, 92.79
556.5, 0.0325, 92.79
557.0, 0.0325, 92.78
557.5, 0.0326, 92.78
558.0, 0.0324, 92.80
558.5, 0.0324, 92.80
559.0, 0.0325, 92.79
559.5, 0.0324, 92.80
560.0, 0.0324, 92.80
560.5, 0.0324, 92.82
561.0, 0.0324, 92.81
561.5, 0.0324, 92.82
562.0, 0.0324, 92.80
562.5, 0.0323, 92.82
563.0, 0.0325, 92.79
563.5, 0.0323, 92.83
564.0, 0.0324, 92.80
564.5, 0.0323, 92.83
565.0, 0.0324, 92.82
565.5, 0.0323, 92.83
566.0, 0.0324, 92.80
566.5, 0.0324, 92.82
567.0, 0.0324, 92.82
567.5, 0.0324, 92.82
568.0, 0.0323, 92.82
568.5, 0.0324, 92.82
569.0, 0.0323, 92.83
569.5, 0.0324, 92.82
570.0, 0.0323, 92.84
570.5, 0.0323, 92.83
571.0, 0.0323, 92.83
571.5, 0.0324, 92.82
572.0, 0.0323, 92.83
572.5, 0.0324, 92.82
573.0, 0.0323, 92.84
573.5, 0.0323, 92.83
574.0, 0.0323, 92.83
574.5, 0.0323, 92.84
575.0, 0.0323, 92.83
575.5, 0.0324, 92.82
576.0, 0.0323, 92.84
576.5, 0.0323, 92.83
577.0, 0.0323, 92.84
577.5, 0.0323, 92.83
578.0, 0.0322, 92.84
578.5, 0.0319, 92.91
579.0, 0.0320, 92.89
579.5, 0.0320, 92.90
580.0, 0.0320, 92.89
580.5, 0.0320, 92.89
581.0, 0.0321, 92.87
581.5, 0.0321, 92.88
582.0, 0.0321, 92.87
582.5, 0.0321, 92.87
583.0, 0.0321, 92.87
583.5, 0.0321, 92.87
584.0, 0.0321, 92.87
584.5, 0.0321, 92.87
585.0, 0.0321, 92.87
585.5, 0.0320, 92.89
586.0, 0.0320, 92.89
586.5, 0.0319, 92.91
587.0, 0.0320, 92.90
587.5, 0.0321, 92.88
588.0, 0.0320, 92.89
588.5, 0.0320, 92.89
589.0, 0.0321, 92.88
589.5, 0.0320, 92.89
590.0, 0.0321, 92.87
590.5, 0.0321, 92.88
591.0, 0.0321, 92.88
591.5, 0.0321, 92.87
592.0, 0.0320, 92.90
592.5, 0.0320, 92.89
593.0, 0.0321, 92.88
593.5, 0.0319, 92.92
594.0, 0.0320, 92.89
594.5, 0.0320, 92.90
595.0, 0.0320, 92.91
595.5, 0.0320, 92.90
596.0, 0.0320, 92.89
596.5, 0.0319, 92.91
597.0, 0.0319, 92.91
597.5, 0.0319, 92.91
598.0, 0.0320, 92.90
598.5, 0.0320, 92.90
599.0, 0.0320, 92.90
599.5, 0.0320, 92.90
600.0, 0.0320, 92.89
600.5, 0.0319, 92.91
601.0, 0.0320, 92.90
601.5, 0.0319, 92.93
602.0, 0.0319, 92.93
602.5, 0.0319, 92.92
603.0, 0.0319, 92.92
603.5, 0.0318, 92.93
604.0, 0.0319, 92.92
604.5, 0.0319, 92.92
605.0, 0.0319, 92.92
605.5, 0.0319, 92.92
606.0, 0.0318, 92.93
606.5, 0.0319, 92.92
607.0, 0.0319, 92.93
607.5, 0.0319, 92.92
608.0, 0.0319, 92.91
608.5, 0.0319, 92.93
609.0, 0.0318, 92.94
609.5, 0.0318, 92.93
610.0, 0.0318, 92.93
610.5, 0.0318, 92.93
611.0, 0.0318, 92.94
611.5, 0.0318, 92.93
612.0, 0.0319, 92.92
612.5, 0.0319, 92.92
613.0, 0.0318, 92.94
613.5, 0.0318, 92.94
614.0, 0.0318, 92.95
614.5, 0.0318, 92.94
615.0, 0.0317, 92.95
615.5, 0.0318, 92.95
616.0, 0.0318, 92.94
616.5, 0.0318, 92.95
617.0, 0.0318, 92.94
617.5, 0.0318, 92.95
618.0, 0.0318, 92.95
618.5, 0.0318, 92.94
619.0, 0.0318, 92.93
619.5, 0.0319, 92.92
620.0, 0.0318, 92.95
620.5, 0.0318, 92.94
621.0, 0.0319, 92.93
621.5, 0.0318, 92.95
622.0, 0.0319, 92.93
622.5, 0.0317, 92.95
623.0, 0.0318, 92.94
623.5, 0.0318, 92.95
624.0, 0.0317, 92.97
624.5, 0.0318, 92.95
625.0, 0.0317, 92.96
625.5, 0.0318, 92.95
626.0, 0.0318, 92.95
626.5, 0.0317, 92.96
627.0, 0.0317, 92.96
627.5, 0.0317, 92.96
628.0, 0.0317, 92.97
628.5, 0.0317, 92.96
629.0, 0.0317, 92.95
629.5, 0.0317, 92.96
630.0, 0.0316, 92.97
630.5, 0.0317, 92.96
631.0, 0.0317, 92.96
631.5, 0.0317, 92.97
632.0, 0.0316, 92.98
632.5, 0.0317, 92.97
633.0, 0.0317, 92.96
633.5, 0.0317, 92.97
634.0, 0.0316, 92.97
634.5, 0.0317, 92.97
635.0, 0.0316, 92.98
635.5, 0.0317, 92.96
636.0, 0.0316, 92.98
636.5, 0.0317, 92.97
637.0, 0.0317, 92.96
637.5, 0.0316, 92.98
638.0, 0.0317, 92.96
638.5, 0.0317, 92.96
639.0, 0.0316, 92.98
639.5, 0.0317, 92.96
640.0, 0.0317, 92.97
640.5, 0.0317, 92.96
641.0, 0.0316, 92.97
641.5, 0.0317, 92.97
642.0, 0.0317, 92.97
642.5, 0.0317, 92.97
643.0, 0.0316, 92.97
643.5, 0.0316, 92.97
644.0, 0.0316, 92.98
644.5, 0.0316, 92.98
645.0, 0.0316, 92.99
645.5, 0.0316, 92.98
646.0, 0.0316, 92.97
646.5, 0.0316, 92.98
647.0, 0.0317, 92.96
647.5, 0.0317, 92.97
648.0, 0.0316, 92.98
648.5, 0.0316, 92.97
649.0, 0.0316, 92.98
649.5, 0.0316, 92.99
650.0, 0.0316, 92.98
650.5, 0.0316, 92.98
651.0, 0.0316, 92.99
651.5, 0.0316, 92.99
652.0, 0.0317, 92.97
652.5, 0.0316, 92.97
653.0, 0.0316, 92.99
653.5, 0.0315, 92.99
654.0, 0.0315, 92.99
654.5, 0.0315, 92.99
655.0, 0.0316, 92.98
655.5, 0.0316, 92.99
656.0, 0.0316, 92.99
656.5, 0.0315, 92.99
657.0, 0.0316, 92.98
657.5, 0.0316, 92.99
658.0, 0.0316, 92.99
658.5, 0.0316, 92.99
659.0, 0.0315, 93.00
659.5, 0.0316, 92.99
660.0, 0.0316, 92.98
660.5, 0.0315, 93.00
661.0, 0.0317, 92.97
661.5, 0.0316, 92.99
662.0, 0.0315, 93.00
662.5, 0.0315, 93.00
663.0, 0.0315, 92.99
663.5, 0.0316, 92.99
664.0, 0.0315, 93.00
664.5, 0.0316, 92.99
665.0, 0.0316, 92.99
665.5, 0.0315, 93.00
666.0, 0.0315, 93.01
666.5, 0.0316, 92.99
667.0, 0.0316, 92.98
667.5, 0.0316, 92.99
668.0, 0.0315, 93.00
668.5, 0.0315, 93.00
669.0, 0.0315, 93.01
669.5, 0.0315, 93.00
670.0, 0.0315, 93.00
670.5, 0.0315, 92.99
671.0, 0.0315, 93.00
671.5, 0.0315, 93.01
672.0, 0.0315, 93.00
672.5, 0.0316, 92.98
673.0, 0.0315, 92.99
673.5, 0.0315, 93.01
674.0, 0.0315, 93.00
674.5, 0.0316, 92.99
675.0, 0.0315, 92.99
675.5, 0.0316, 92.99
676.0, 0.0315, 93.00
676.5, 0.0315, 93.00
677.0, 0.0315, 93.01
677.5, 0.0315, 93.00
678.0, 0.0315, 93.00
678.5, 0.0315, 93.01
679.0, 0.0315, 93.01
679.5, 0.0315, 93.00
680.0, 0.0315, 92.99
680.5, 0.0315, 93.01
681.0, 0.0315, 93.00
681.5, 0.0315, 93.00
682.0, 0.0315, 92.99
682.5, 0.0315, 93.00
683.0, 0.0314, 93.02
683.5, 0.0314, 93.02
684.0, 0.0316, 92.99
684.5, 0.0315, 93.01
685.0, 0.0315, 93.00
685.5, 0.0315, 93.01
686.0, 0.0315, 93.01
686.5, 0.0315, 92.99
687.0, 0.0315, 93.01
687.5, 0.0314, 93.02
688.0, 0.0314, 93.03
688.5, 0.0314, 93.02
689.0, 0.0315, 93.01
689.5, 0.0315, 93.00
690.0, 0.0315, 93.00
690.5, 0.0315, 93.00
691.0, 0.0314, 93.02
691.5, 0.0315, 93.01
692.0, 0.0315, 93.01
692.5, 0.0315, 93.01
693.0, 0.0314, 93.02
693.5, 0.0314, 93.02
694.0, 0.0314, 93.03
694.5, 0.0314, 93.04
695.0, 0.0314, 93.02
695.5, 0.0315, 93.01
696.0, 0.0314, 93.02
696.5, 0.0315, 93.01
697.0, 0.0314, 93.01
697.5, 0.0315, 93.01
698.0, 0.0313, 93.04
698.5, 0.0314, 93.02
699.0, 0.0315, 93.01
699.5, 0.0315, 93.00
700.0, 0.0315, 93.01
700.5, 0.0315, 93.01
701.0, 0.0315, 93.01
701.5, 0.0315, 93.01
702.0, 0.0314, 93.02
702.5, 0.0315, 93.01
703.0, 0.0314, 93.02
703.5, 0.0314, 93.02
704.0, 0.0315, 93.01
704.5, 0.0314, 93.02
705.0, 0.0315, 93.00
705.5, 0.0314, 93.02
706.0, 0.0314, 93.03
706.5, 0.0315, 93.01
707.0, 0.0314, 93.02
707.5, 0.0314, 93.03
708.0, 0.0314, 93.03
708.5, 0.0311, 93.08
709.0, 0.0311, 93.08
709.5, 0.0311, 93.09
710.0, 0.0312, 93.07
710.5, 0.0311, 93.08
711.0, 0.0312, 93.07
711.5, 0.0311, 93.08
712.0, 0.0312, 93.07
712.5, 0.0312, 93.07
713.0, 0.0312, 93.06
713.5, 0.0312, 93.07
714.0, 0.0312, 93.06
714.5, 0.0312, 93.06
715.0, 0.0312, 93.06
715.5, 0.0312, 93.07
716.0, 0.0313, 93.05
716.5, 0.0312, 93.06
717.0, 0.0313, 93.04
717.5, 0.0312, 93.06
718.0, 0.0313, 93.05
718.5, 0.0313, 93.05
719.0, 0.0313, 93.04
719.5, 0.0314, 93.03
720.0, 0.0313, 93.04
720.5, 0.0314, 93.03
721.0, 0.0313, 93.05
721.5, 0.0314, 93.03
722.0, 0.0313, 93.05
722.5, 0.0314, 93.02
723.0, 0.0313, 93.04
723.5, 0.0314, 93.02
724.0, 0.0314, 93.03
724.5, 0.0315, 93.00
725.0, 0.0314, 93.02
725.5, 0.0316, 92.99
726.0, 0.0315, 93.01
726.5, 0.0315, 93.00
727.0, 0.0315, 93.01
727.5, 0.0316, 92.98
728.0, 0.0315, 93.00
728.5, 0.0317, 92.97
729.0, 0.0315, 93.00
729.5, 0.0316, 92.97
730.0, 0.0316, 92.97
730.5, 0.0318, 92.95
731.0, 0.0317, 92.97
731.5, 0.0318, 92.95
732.0, 0.0317, 92.97
732.5, 0.0317, 92.95
733.0, 0.0318, 92.95
733.5, 0.0319, 92.93
734.0, 0.0318, 92.93
734.5, 0.0319, 92.93
735.0, 0.0319, 92.92
735.5, 0.0319, 92.93
736.0, 0.0319, 92.92
736.5, 0.0319, 92.92
737.0, 0.0320, 92.91
737.5, 0.0319, 92.91
738.0, 0.0320, 92.90
738.5, 0.0319, 92.91
739.0, 0.0320, 92.90
739.5, 0.0319, 92.91
740.0, 0.0321, 92.88
740.5, 0.0320, 92.90
741.0, 0.0320, 92.89
741.5, 0.0319, 92.92
742.0, 0.0320, 92.90
742.5, 0.0319, 92.91
743.0, 0.0320, 92.89
743.5, 0.0320, 92.91
744.0, 0.0321, 92.88
744.5, 0.0319, 92.91
745.0, 0.0321, 92.88
745.5, 0.0319, 92.91
746.0, 0.0320, 92.90
746.5, 0.0319, 92.92
747.0, 0.0319, 92.91
747.5, 0.0319, 92.91
748.0, 0.0320, 92.90
748.5, 0.0319, 92.91
749.0, 0.0320, 92.90
749.5, 0.0320, 92.90
750.0, 0.0320, 92.91
750.5, 0.0320, 92.90
751.0, 0.0319, 92.91
751.5, 0.0319, 92.91
752.0, 0.0319, 92.92
752.5, 0.0320, 92.90
753.0, 0.0318, 92.93
753.5, 0.0320, 92.91
754.0, 0.0319, 92.92
754.5, 0.0320, 92.91
755.0, 0.0319, 92.92
755.5, 0.0320, 92.90
756.0, 0.0319, 92.92
756.5, 0.0319, 92.92
757.0, 0.0318, 92.93
757.5, 0.0319, 92.91
758.0, 0.0318, 92.93
758.5, 0.0320, 92.90
759.0, 0.0318, 92.95
759.5, 0.0319, 92.92
760.0, 0.0318, 92.93
760.5, 0.0319, 92.92
761.0, 0.0318, 92.94
761.5, 0.0319, 92.92
762.0, 0.0319, 92.92
762.5, 0.0319, 92.92
763.0, 0.0319, 92.93
763.5, 0.0319, 92.92
764.0, 0.0319, 92.92
764.5, 0.0319, 92.93
765.0, 0.0319, 92.92
765.5, 0.0318, 92.93
766.0, 0.0318, 92.93
766.5, 0.0318, 92.94
767.0, 0.0319, 92.92
767.5, 0.0318, 92.93
768.0, 0.0318, 92.95
768.5, 0.0318, 92.94
769.0, 0.0318, 92.94
769.5, 0.0317, 92.95
770.0, 0.0317, 92.95
770.5, 0.0318, 92.94
771.0, 0.0317, 92.96
771.5, 0.0318, 92.94
772.0, 0.0317, 92.95
772.5, 0.0318, 92.94
773.0, 0.0318, 92.94
773.5, 0.0317, 92.95
774.0, 0.0318, 92.94
774.5, 0.0318, 92.94
775.0, 0.0318, 92.95
775.5, 0.0318, 92.94
776.0, 0.0318, 92.95
776.5, 0.0317, 92.95
777.0, 0.0318, 92.94
777.5, 0.0317, 92.96
778.0, 0.0317, 92.95
778.5, 0.0318, 92.95
779.0, 0.0317, 92.97
779.5, 0.0317, 92.97
780.0, 0.0316, 92.97
780.5, 0.0316, 92.98
781.0, 0.0317, 92.97
781.5, 0.0317, 92.97
782.0, 0.0316, 92.98
782.5, 0.0317, 92.97
783.0, 0.0316, 92.99
783.5, 0.0316, 92.98
784.0, 0.0316, 92.98
784.5, 0.0317, 92.97
785.0, 0.0315, 93.01
785.5, 0.0316, 92.98
786.0, 0.0316, 92.98
786.5, 0.0315, 93.00
787.0, 0.0315, 93.00
787.5, 0.0315, 93.01
788.0, 0.0315, 92.99
788.5, 0.0315, 93.01
789.0, 0.0315, 93.00
789.5, 0.0315, 93.01
790.0, 0.0315, 93.01
790.5, 0.0315, 93.01
791.0, 0.0315, 93.00
791.5, 0.0314, 93.01
792.0, 0.0315, 93.01
792.5, 0.0315, 93.00
793.0, 0.0314, 93.02
793.5, 0.0314, 93.02
794.0, 0.0314, 93.03
794.5, 0.0315, 93.01
795.0, 0.0313, 93.05
795.5, 0.0314, 93.03
796.0, 0.0314, 93.03
796.5, 0.0314, 93.03
797.0, 0.0314, 93.03
797.5, 0.0313, 93.04
798.0, 0.0313, 93.04
798.5, 0.0313, 93.04
799.0, 0.0313, 93.04
799.5, 0.0311, 93.09
800.0, 0.0310, 93.12
800.5, 0.0311, 93.08
801.0, 0.0310, 93.10
801.5, 0.0311, 93.09
802.0, 0.0310, 93.10
802.5, 0.0311, 93.10
803.0, 0.0311, 93.09
803.5, 0.0311, 93.10
804.0, 0.0311, 93.09
804.5, 0.0311, 93.08
805.0, 0.0310, 93.10
805.5, 0.0311, 93.10
806.0, 0.0311, 93.10
806.5, 0.0311, 93.10
807.0, 0.0311, 93.09
807.5, 0.0310, 93.10
808.0, 0.0311, 93.09
808.5, 0.0311, 93.10
809.0, 0.0311, 93.08
809.5, 0.0311, 93.09
810.0, 0.0311, 93.09
810.5, 0.0310, 93.10
811.0, 0.0312, 93.06
811.5, 0.0310, 93.10
812.0, 0.0312, 93.07
812.5, 0.0311, 93.10
813.0, 0.0312, 93.06
813.5, 0.0311, 93.10
814.0, 0.0312, 93.06
814.5, 0.0311, 93.09
815.0, 0.0312, 93.06
815.5, 0.0311, 93.09
816.0, 0.0313, 93.04
816.5, 0.0311, 93.08
817.0, 0.0313, 93.05
817.5, 0.0312, 93.07
818.0, 0.0312, 93.06
818.5, 0.0312, 93.07
819.0, 0.0313, 93.05
819.5, 0.0311, 93.08
820.0, 0.0312, 93.07
820.5, 0.0312, 93.07
821.0, 0.0312, 93.06
821.5, 0.0313, 93.04
822.0, 0.0313, 93.05
822.5, 0.0313, 93.05
823.0, 0.0313, 93.05
823.5, 0.0313, 93.04
824.0, 0.0312, 93.06
824.5, 0.0313, 93.05
825.0, 0.0313, 93.05
825.5, 0.0314, 93.03
826.0, 0.0314, 93.04
826.5, 0.0314, 93.02
827.0, 0.0313, 93.04
827.5, 0.0315, 93.00
828.0, 0.0314, 93.02
828.5, 0.0315, 93.00
829.0, 0.0315, 93.00
829.5, 0.0316, 92.97
830.0, 0.0315, 93.00
830.5, 0.0317, 92.97
831.0, 0.0316, 92.99
831.5, 0.0317, 92.96
832.0, 0.0316, 92.97
832.5, 0.0317, 92.96
833.0, 0.0317, 92.95
833.5, 0.0318, 92.93
834.0, 0.0317, 92.96
834.5, 0.0318, 92.94
835.0, 0.0317, 92.95
835.5, 0.0318, 92.93
836.0, 0.0318, 92.94
836.5, 0.0319, 92.92
837.0, 0.0319, 92.93
837.5, 0.0319, 92.92
838.0, 0.0318, 92.93
838.5, 0.0319, 92.93
839.0, 0.0318, 92.93
839.5, 0.0318, 92.93
840.0, 0.0319, 92.92
840.5, 0.0319, 92.92
841.0, 0.0320, 92.91
841.5, 0.0319, 92.91
842.0, 0.0320, 92.90
842.5, 0.0319, 92.91
843.0, 0.0320, 92.89
843.5, 0.0318, 92.93
844.0, 0.0320, 92.90
844.5, 0.0319, 92.92
845.0, 0.0320, 92.89
845.5, 0.0320, 92.90
846.0, 0.0321, 92.89
846.5, 0.0320, 92.89
847.0, 0.0320, 92.90
847.5, 0.0320, 92.89
848.0, 0.0321, 92.88
848.5, 0.0321, 92.89
849.0, 0.0320, 92.90
849.5, 0.0320, 92.89
850.0, 0.0321, 92.88
850.5, 0.0321, 92.88
851.0, 0.0322, 92.86
851.5, 0.0321, 92.87
852.0, 0.0321, 92.87
852.5, 0.0322, 92.86
853.0, 0.0322, 92.86
853.5, 0.0322, 92.86
854.0, 0.0322, 92.85
854.5, 0.0321, 92.87
855.0, 0.0322, 92.85
855.5, 0.0322, 92.86
856.0, 0.0322, 92.86
856.5, 0.0322, 92.86
857.0, 0.0323, 92.84
857.5, 0.0322, 92.85
858.0, 0.0322, 92.85
858.5, 0.0323, 92.84
859.0, 0.0322, 92.85
859.5, 0.0322, 92.85
860.0, 0.0323, 92.83
860.5, 0.0323, 92.84
861.0, 0.0323, 92.84
861.5, 0.0322, 92.85
862.0, 0.0323, 92.84
862.5, 0.0323, 92.83
863.0, 0.0323, 92.83
863.5, 0.0323, 92.82
864.0, 0.0323, 92.82
864.5, 0.0324, 92.82
865.0, 0.0323, 92.82
865.5, 0.0324, 92.82
866.0, 0.0323, 92.83
866.5, 0.0324, 92.81
867.0, 0.0324, 92.82
867.5, 0.0324, 92.82
868.0, 0.0324, 92.82
868.5, 0.0324, 92.81
869.0, 0.0324, 92.81
869.5, 0.0325, 92.80
870.0, 0.0324, 92.81
870.5, 0.0325, 92.80
871.0, 0.0325, 92.79
871.5, 0.0325, 92.78
872.0, 0.0325, 92.79
872.5, 0.0325, 92.78
873.0, 0.0325, 92.78
873.5, 0.0325, 92.79
874.0, 0.0325, 92.78
874.5, 0.0326, 92.78
875.0, 0.0326, 92.78
875.5, 0.0326, 92.77
876.0, 0.0326, 92.77
876.5, 0.0326, 92.78
877.0, 0.0326, 92.77
877.5, 0.0326, 92.77
878.0, 0.0327, 92.75
878.5, 0.0326, 92.76
879.0, 0.0327, 92.76
879.5, 0.0327, 92.76
880.0, 0.0327, 92.75
880.5, 0.0327, 92.76
881.0, 0.0327, 92.75
881.5, 0.0327, 92.74
882.0, 0.0328, 92.73
882.5, 0.0327, 92.74
883.0, 0.0328, 92.73
883.5, 0.0328, 92.74
884.0, 0.0328, 92.72
884.5, 0.0328, 92.73
885.0, 0.0329, 92.71
885.5, 0.0329, 92.71
886.0, 0.0328, 92.72
886.5, 0.0328, 92.72
887.0, 0.0329, 92.71
887.5, 0.0329, 92.71
888.0, 0.0329, 92.71
888.5, 0.0329, 92.71
889.0, 0.0330, 92.69
889.5, 0.0329, 92.70
890.0, 0.0330, 92.69
890.5, 0.0330, 92.69
891.0, 0.0330, 92.69
891.5, 0.0330, 92.69
892.0, 0.0330, 92.69
892.5, 0.0330, 92.69
893.0, 0.0330, 92.68
893.5, 0.0330, 92.68
894.0, 0.0331, 92.67
894.5, 0.0331, 92.67
895.0, 0.0331, 92.67
895.5, 0.0331, 92.66
896.0, 0.0331, 92.66
896.5, 0.0331, 92.65
897.0, 0.0331, 92.66
897.5, 0.0331, 92.65
898.0, 0.0332, 92.65
898.5, 0.0331, 92.66
899.0, 0.0331, 92.65
899.5, 0.0332, 92.65
900.0, 0.0332, 92.65
900.5, 0.0332, 92.65
901.0, 0.0332, 92.64
901.5, 0.0333, 92.63
902.0, 0.0332, 92.64
902.5, 0.0333, 92.62
903.0, 0.0332, 92.63
903.5, 0.0333, 92.62
904.0, 0.0333, 92.63
904.5, 0.0333, 92.62
905.0, 0.0333, 92.62
905.5, 0.0333, 92.62
906.0, 0.0334, 92.60
906.5, 0.0334, 92.60
907.0, 0.0334, 92.60
907.5, 0.0334, 92.60
908.0, 0.0334, 92.60
908.5, 0.0334, 92.59
909.0, 0.0334, 92.59
909.5, 0.0335, 92.59
910.0, 0.0335, 92.58
910.5, 0.0335, 92.58
911.0, 0.0335, 92.58
911.5, 0.0336, 92.56
912.0, 0.0335, 92.57
912.5, 0.0335, 92.57
913.0, 0.0336, 92.55
913.5, 0.0336, 92.54
914.0, 0.0336, 92.55
914.5, 0.0337, 92.54
915.0, 0.0338, 92.52
915.5, 0.0337, 92.53
916.0, 0.0338, 92.51
916.5, 0.0339, 92.50
917.0, 0.0339, 92.50
917.5, 0.0339, 92.50
918.0, 0.0340, 92.48
918.5, 0.0340, 92.47
919.0, 0.0340, 92.46
919.5, 0.0341, 92.45
920.0, 0.0341, 92.45
920.5, 0.0342, 92.42
921.0, 0.0342, 92.42
921.5, 0.0343, 92.40
922.0, 0.0344, 92.39
922.5, 0.0344, 92.38
923.0, 0.0345, 92.36
923.5, 0.0346, 92.34
924.0, 0.0346, 92.34
924.5, 0.0347, 92.32
925.0, 0.0348, 92.30
925.5, 0.0349, 92.28
926.0, 0.0349, 92.27
926.5, 0.0350, 92.25
927.0, 0.0351, 92.24
927.5, 0.0353, 92.20
928.0, 0.0354, 92.18
928.5, 0.0355, 92.16
929.0, 0.0356, 92.14
929.5, 0.0356, 92.13
930.0, 0.0358, 92.09
930.5, 0.0358, 92.08
931.0, 0.0360, 92.04
931.5, 0.0361, 92.03
932.0, 0.0363, 91.98
932.5, 0.0363, 91.97
933.0, 0.0365, 91.93
933.5, 0.0366, 91.92
934.0, 0.0368, 91.88
934.5, 0.0369, 91.86
935.0, 0.0371, 91.82
935.5, 0.0372, 91.78
936.0, 0.0374, 91.75
936.5, 0.0375, 91.73
937.0, 0.0377, 91.69
937.5, 0.0379, 91.65
938.0, 0.0380, 91.61
938.5, 0.0382, 91.57
939.0, 0.0384, 91.54
939.5, 0.0385, 91.51
940.0, 0.0387, 91.46
940.5, 0.0390, 91.42
941.0, 0.0391, 91.39
941.5, 0.0394, 91.32
942.0, 0.0395, 91.30
942.5, 0.0398, 91.25
943.0, 0.0399, 91.22
943.5, 0.0402, 91.15
944.0, 0.0403, 91.14
944.5, 0.0406, 91.07
945.0, 0.0407, 91.05
945.5, 0.0410, 91.00
946.0, 0.0412, 90.96
946.5, 0.0414, 90.90
947.0, 0.0417, 90.85
947.5, 0.0420, 90.78
948.0, 0.0421, 90.75
948.5, 0.0425, 90.67
949.0, 0.0426, 90.65
949.5, 0.0430, 90.57
950.0, 0.0433, 90.51
950.5, 0.0436, 90.46
951.0, 0.0439, 90.38
951.5, 0.0442, 90.33
952.0, 0.0446, 90.25
952.5, 0.0449, 90.18
953.0, 0.0453, 90.09
953.5, 0.0457, 90.02
954.0, 0.0460, 89.94
954.5, 0.0463, 89.88
955.0, 0.0468, 89.79
955.5, 0.0470, 89.74
956.0, 0.0475, 89.65
956.5, 0.0476, 89.61
957.0, 0.0480, 89.53
957.5, 0.0482, 89.51
958.0, 0.0486, 89.42
958.5, 0.0487, 89.39
959.0, 0.0490, 89.32
959.5, 0.0491, 89.32
960.0, 0.0494, 89.26
960.5, 0.0493, 89.26
961.0, 0.0496, 89.21
961.5, 0.0497, 89.19
962.0, 0.0498, 89.16
962.5, 0.0499, 89.14
963.0, 0.0500, 89.13
963.5, 0.0502, 89.09
964.0, 0.0502, 89.08
964.5, 0.0502, 89.08
965.0, 0.0503, 89.06
965.5, 0.0505, 89.03
966.0, 0.0504, 89.04
966.5, 0.0505, 89.02
967.0, 0.0505, 89.02
967.5, 0.0506, 89.00
968.0, 0.0506, 89.01
968.5, 0.0507, 88.98
969.0, 0.0506, 89.00
969.5, 0.0508, 88.96
970.0, 0.0507, 88.99
970.5, 0.0504, 89.04
971.0, 0.0504, 89.05
971.5, 0.0504, 89.03
972.0, 0.0504, 89.05
972.5, 0.0506, 89.01
973.0, 0.0504, 89.04
973.5, 0.0506, 89.00
974.0, 0.0504, 89.03
974.5, 0.0506, 88.99
975.0, 0.0505, 89.03
975.5, 0.0507, 88.99
976.0, 0.0506, 89.01
976.5, 0.0506, 89.00
977.0, 0.0506, 89.01
977.5, 0.0506, 88.99
978.0, 0.0506, 89.01
978.5, 0.0507, 88.99
979.0, 0.0505, 89.03
979.5, 0.0506, 89.00
980.0, 0.0505, 89.03
980.5, 0.0505, 89.02
981.0, 0.0505, 89.03
981.5, 0.0504, 89.04
982.0, 0.0504, 89.05
982.5, 0.0503, 89.07
983.0, 0.0503, 89.07
983.5, 0.0502, 89.07
984.0, 0.0501, 89.09
984.5, 0.0501, 89.11
985.0, 0.0501, 89.10
985.5, 0.0500, 89.13
986.0, 0.0499, 89.15
986.5, 0.0498, 89.16
987.0, 0.0499, 89.16
987.5, 0.0497, 89.18
988.0, 0.0497, 89.18
988.5, 0.0495, 89.23
989.0, 0.0495, 89.23
989.5, 0.0493, 89.27
990.0, 0.0494, 89.26
990.5, 0.0492, 89.30
991.0, 0.0492, 89.29
991.5, 0.0489, 89.35
992.0, 0.0490, 89.33
992.5, 0.0487, 89.39
993.0, 0.0489, 89.36
993.5, 0.0486, 89.41
994.0, 0.0486, 89.42
994.5, 0.0484, 89.45
995.0, 0.0484, 89.45
995.5, 0.0482, 89.49
996.0, 0.0482, 89.49
996.5, 0.0481, 89.53
997.0, 0.0480, 89.53
997.5, 0.0479, 89.55
998.0, 0.0478, 89.57
998.5, 0.0477, 89.60
999.0, 0.0475, 89.64
999.5, 0.0475, 89.65
1000.0, 0.0474, 89.67
1000.5, 0.0473, 89.68
1001.0, 0.0471, 89.72
1001.5, 0.0471, 89.73
1002.0, 0.0468, 89.78
1002.5, 0.0469, 89.77
1003.0, 0.0465, 89.85
1003.5, 0.0466, 89.83
1004.0, 0.0463, 89.89
1004.5, 0.0463, 89.88
1005.0, 0.0461, 89.93
1005.5, 0.0461, 89.93
1006.0, 0.0459, 89.97
1006.5, 0.0459, 89.98
1007.0, 0.0456, 90.04
1007.5, 0.0457, 90.02
1008.0, 0.0454, 90.08
1008.5, 0.0453, 90.10
1009.0, 0.0451, 90.13
1009.5, 0.0450, 90.15
1010.0, 0.0449, 90.17
1010.5, 0.0448, 90.20
1011.0, 0.0447, 90.22
1011.5, 0.0444, 90.29
1012.0, 0.0445, 90.26
1012.5, 0.0442, 90.31
1013.0, 0.0442, 90.32
1013.5, 0.0436, 90.46
1014.0, 0.0435, 90.46
1014.5, 0.0433, 90.51
1015.0, 0.0434, 90.49
1015.5, 0.0431, 90.56
1016.0, 0.0431, 90.54
1016.5, 0.0429, 90.60
1017.0, 0.0429, 90.59
1017.5, 0.0427, 90.64
1018.0, 0.0427, 90.64
1018.5, 0.0425, 90.68
1019.0, 0.0424, 90.70
1019.5, 0.0424, 90.70
1020.0, 0.0422, 90.73
1020.5, 0.0421, 90.77
1021.0, 0.0420, 90.78
1021.5, 0.0418, 90.81
1022.0, 0.0418, 90.83
1022.5, 0.0416, 90.86
1023.0, 0.0415, 90.88
1023.5, 0.0415, 90.88
1024.0, 0.0412, 90.94
1024.5, 0.0414, 90.92
1025.0, 0.0410, 90.99
1025.5, 0.0411, 90.98
1026.0, 0.0408, 91.03
1026.5, 0.0408, 91.03
1027.0, 0.0406, 91.08
1027.5, 0.0406, 91.08
1028.0, 0.0405, 91.10
1028.5, 0.0403, 91.13
1029.0, 0.0401, 91.18
1029.5, 0.0402, 91.16
1030.0, 0.0399, 91.22
1030.5, 0.0399, 91.21
1031.0, 0.0397, 91.26
1031.5, 0.0397, 91.26
1032.0, 0.0396, 91.29
1032.5, 0.0395, 91.31
1033.0, 0.0394, 91.32
1033.5, 0.0392, 91.36
1034.0, 0.0392, 91.37
1034.5, 0.0391, 91.39
1035.0, 0.0390, 91.42
1035.5, 0.0389, 91.43
1036.0, 0.0388, 91.45
1036.5, 0.0387, 91.48
1037.0, 0.0386, 91.50
1037.5, 0.0384, 91.53
1038.0, 0.0385, 91.52
1038.5, 0.0383, 91.57
1039.0, 0.0383, 91.55
1039.5, 0.0381, 91.60
1040.0, 0.0381, 91.60
1040.5, 0.0379, 91.64
1041.0, 0.0380, 91.62
1041.5, 0.0378, 91.67
1042.0, 0.0378, 91.66
1042.5, 0.0376, 91.70
1043.0, 0.0376, 91.71
1043.5, 0.0375, 91.73
1044.0, 0.0375, 91.73
1044.5, 0.0370, 91.84
1045.0, 0.0370, 91.84
1045.5, 0.0369, 91.85
1046.0, 0.0369, 91.86
1046.5, 0.0369, 91.85
1047.0, 0.0368, 91.88
1047.5, 0.0367, 91.89
1048.0, 0.0366, 91.92
1048.5, 0.0366, 91.92
1049.0, 0.0366, 91.92
1049.5, 0.0366, 91.92
1050.0, 0.0365, 91.95
1050.5, 0.0365, 91.93
1051.0, 0.0364, 91.97
1051.5, 0.0365, 91.94
1052.0, 0.0363, 91.99
1052.5, 0.0364, 91.97
1053.0, 0.0361, 92.03
1053.5, 0.0362, 92.00
1054.0, 0.0361, 92.02
1054.5, 0.0362, 92.01
1055.0, 0.0359, 92.06
1055.5, 0.0360, 92.05
1056.0, 0.0360, 92.05
1056.5, 0.0361, 92.02
1057.0, 0.0358, 92.09
1057.5, 0.0359, 92.07
1058.0, 0.0357, 92.11
1058.5, 0.0359, 92.06
1059.0, 0.0357, 92.10
1059.5, 0.0357, 92.11
1060.0, 0.0358, 92.09
1060.5, 0.0356, 92.13
1061.0, 0.0359, 92.08
1061.5, 0.0356, 92.13
1062.0, 0.0357, 92.12
1062.5, 0.0355, 92.15
1063.0, 0.0357, 92.12
1063.5, 0.0356, 92.13
1064.0, 0.0355, 92.15
1064.5, 0.0355, 92.14
1065.0, 0.0355, 92.14
1065.5, 0.0354, 92.17
1066.0, 0.0356, 92.14
1066.5, 0.0352, 92.22
1067.0, 0.0354, 92.17
1067.5, 0.0352, 92.21
1068.0, 0.0354, 92.16
1068.5, 0.0354, 92.17
1069.0, 0.0353, 92.19
1069.5, 0.0354, 92.16
1070.0, 0.0354, 92.17
1070.5, 0.0350, 92.25
1071.0, 0.0352, 92.22
1071.5, 0.0350, 92.26
1072.0, 0.0351, 92.23
1072.5, 0.0351, 92.24
1073.0, 0.0351, 92.25
1073.5, 0.0353, 92.20
1074.0, 0.0351, 92.23
1074.5, 0.0354, 92.18
1075.0, 0.0352, 92.22
1075.5, 0.0354, 92.17
1076.0, 0.0353, 92.19
1076.5, 0.0353, 92.18
1077.0, 0.0353, 92.19
1077.5, 0.0353, 92.18
1078.0, 0.0353, 92.19
1078.5, 0.0357, 92.11
1079.0, 0.0352, 92.21
1079.5, 0.0357, 92.11
1080.0, 0.0354, 92.18
1080.5, 0.0357, 92.12
1081.0, 0.0355, 92.14
1081.5, 0.0355, 92.14
1082.0, 0.0354, 92.17
1082.5, 0.0355, 92.14
1083.0, 0.0356, 92.13
1083.5, 0.0356, 92.12
1084.0, 0.0356, 92.12
1084.5, 0.0357, 92.10
1085.0, 0.0357, 92.10
1085.5, 0.0358, 92.08
1086.0, 0.0357, 92.11
1086.5, 0.0356, 92.12
1087.0, 0.0357, 92.11
1087.5, 0.0356, 92.14
1088.0, 0.0361, 92.02
1088.5, 0.0358, 92.08
1089.0, 0.0360, 92.05
1089.5, 0.0359, 92.07
1090.0, 0.0361, 92.02
1090.5, 0.0362, 91.99
1091.0, 0.0361, 92.02
1091.5, 0.0360, 92.04
1092.0, 0.0363, 91.99
1092.5, 0.0363, 91.99
1093.0, 0.0365, 91.94
1093.5, 0.0363, 91.99
1094.0, 0.0366, 91.93
1094.5, 0.0364, 91.95
1095.0, 0.0364, 91.96
1095.5, 0.0364, 91.97
1096.0, 0.0363, 91.98
1096.5, 0.0361, 92.02
1097.0, 0.0361, 92.03
1097.5, 0.0363, 91.98
1098.0, 0.0357, 92.12
1098.5, 0.0360, 92.05
1099.0, 0.0358, 92.08
1099.5, 0.0358, 92.09
1100.0, 0.0357, 92.10
