Sample Name, Sample-1
Time, March 10 13:30:39 2023
Operator, Smith
Lamp, 0
Slit,0.0
Scan From, 1100.0nm
Scan To, 190.0nm
Scan Step, 0.5nm
Sample Filter, 5
memo, 
WL(nm), Abs, T%
190.0, 0.1825, 65.69
190.5, 0.1794, 66.15
191.0, 0.1780, 66.37
191.5, 0.1753, 66.79
192.0, 0.1728, 67.18
192.5, 0.1704, 67.55
193.0, 0.1679, 67.94
193.5, 0.1658, 68.26
194.0, 0.1636, 68.62
194.5, 0.1611, 69.01
195.0, 0.1591, 69.33
195.5, 0.1568, 69.69
196.0, 0.1550, 69.98
196.5, 0.1526, 70.37
197.0, 0.1503, 70.74
197.5, 0.1483, 71.08
198.0, 0.1456, 71.52
198.5, 0.1428, 71.97
199.0, 0.1401, 72.42
199.5, 0.1377, 72.83
200.0, 0.1351, 73.27
200.5, 0.1323, 73.74
201.0, 0.1302, 74.09
201.5, 0.1276, 74.54
202.0, 0.1251, 74.98
202.5, 0.1224, 75.44
203.0, 0.1198, 75.89
203.5, 0.1172, 76.34
204.0, 0.1148, 76.78
204.5, 0.1126, 77.16
205.0, 0.1103, 77.56
205.5, 0.1081, 77.97
206.0, 0.1060, 78.34
206.5, 0.1039, 78.72
207.0, 0.1020, 79.07
207.5, 0.1001, 79.42
208.0, 0.0982, 79.77
208.5, 0.0962, 80.13
209.0, 0.0946, 80.43
209.5, 0.0930, 80.72
210.0, 0.0915, 81.00
210.5, 0.0901, 81.27
211.0, 0.0888, 81.50
211.5, 0.0877, 81.71
212.0, 0.0865, 81.95
212.5, 0.0852, 82.18
213.0, 0.0841, 82.39
213.5, 0.0830, 82.60
214.0, 0.0819, 82.81
214.5, 0.0810, 82.99
215.0, 0.0800, 83.17
215.5, 0.0795, 83.28
216.0, 0.0785, 83.47
216.5, 0.0779, 83.57
217.0, 0.0772, 83.71
217.5, 0.0767, 83.80
218.0, 0.0761, 83.93
218.5, 0.0755, 84.04
219.0, 0.0750, 84.14
219.5, 0.0745, 84.24
220.0, 0.0741, 84.32
220.5, 0.0736, 84.42
221.0, 0.0731, 84.51
221.5, 0.0729, 84.55
222.0, 0.0725, 84.62
222.5, 0.0720, 84.72
223.0, 0.0717, 84.78
223.5, 0.0713, 84.86
224.0, 0.0710, 84.92
224.5, 0.0707, 84.97
225.0, 0.0703, 85.06
225.5, 0.0700, 85.11
226.0, 0.0698, 85.15
226.5, 0.0695, 85.21
227.0, 0.0692, 85.27
227.5, 0.0687, 85.37
228.0, 0.0684, 85.43
228.5, 0.0679, 85.53
229.0, 0.0676, 85.59
229.5, 0.0672, 85.66
230.0, 0.0668, 85.74
230.5, 0.0665, 85.80
231.0, 0.0662, 85.87
231.5, 0.0658, 85.95
232.0, 0.0654, 86.03
232.5, 0.0650, 86.10
233.0, 0.0644, 86.22
233.5, 0.0638, 86.33
234.0, 0.0636, 86.38
234.5, 0.0630, 86.49
235.0, 0.0627, 86.56
235.5, 0.0622, 86.65
236.0, 0.0617, 86.75
236.5, 0.0613, 86.83
237.0, 0.0608, 86.93
237.5, 0.0604, 87.01
238.0, 0.0599, 87.12
238.5, 0.0595, 87.20
239.0, 0.0589, 87.31
239.5, 0.0585, 87.41
240.0, 0.0581, 87.48
240.5, 0.0577, 87.56
241.0, 0.0573, 87.63
241.5, 0.0569, 87.73
242.0, 0.0565, 87.80
242.5, 0.0561, 87.89
243.0, 0.0556, 87.97
243.5, 0.0553, 88.05
244.0, 0.0550, 88.11
244.5, 0.0545, 88.21
245.0, 0.0542, 88.27
245.5, 0.0539, 88.33
246.0, 0.0536, 88.40
246.5, 0.0532, 88.47
247.0, 0.0528, 88.54
247.5, 0.0526, 88.59
248.0, 0.0522, 88.68
248.5, 0.0519, 88.73
249.0, 0.0517, 88.78
249.5, 0.0514, 88.84
250.0, 0.0510, 88.91
250.5, 0.0509, 88.94
251.0, 0.0506, 88.99
251.5, 0.0504, 89.05
252.0, 0.0501, 89.09
252.5, 0.0499, 89.14
253.0, 0.0496, 89.21
253.5, 0.0493, 89.27
254.0, 0.0490, 89.32
254.5, 0.0484, 89.45
255.0, 0.0483, 89.48
255.5, 0.0481, 89.51
256.0, 0.0480, 89.54
256.5, 0.0476, 89.61
257.0, 0.0475, 89.65
257.5, 0.0473, 89.69
258.0, 0.0471, 89.72
258.5, 0.0469, 89.77
259.0, 0.0468, 89.78
259.5, 0.0467, 89.81
260.0, 0.0464, 89.87
260.5, 0.0464, 89.87
261.0, 0.0462, 89.90
261.5, 0.0459, 89.96
262.0, 0.0458, 89.99
262.5, 0.0457, 90.02
263.0, 0.0454, 90.06
263.5, 0.0453, 90.09
264.0, 0.0452, 90.11
264.5, 0.0450, 90.16
265.0, 0.0450, 90.15
265.5, 0.0449, 90.17
266.0, 0.0448, 90.20
266.5, 0.0446, 90.24
267.0, 0.0444, 90.28
267.5, 0.0443, 90.31
268.0, 0.0441, 90.34
268.5, 0.0441, 90.35
269.0, 0.0440, 90.37
269.5, 0.0439, 90.39
270.0, 0.0438, 90.40
270.5, 0.0437, 90.42
271.0, 0.0436, 90.44
271.5, 0.0434, 90.49
272.0, 0.0433, 90.51
272.5, 0.0432, 90.52
273.0, 0.0432, 90.53
273.5, 0.0432, 90.53
274.0, 0.0430, 90.58
274.5, 0.0429, 90.59
275.0, 0.0430, 90.58
275.5, 0.0429, 90.60
276.0, 0.0428, 90.61
276.5, 0.0427, 90.63
277.0, 0.0426, 90.66
277.5, 0.0425, 90.68
278.0, 0.0424, 90.70
278.5, 0.0424, 90.70
279.0, 0.0423, 90.71
279.5, 0.0423, 90.72
280.0, 0.0423, 90.72
280.5, 0.0422, 90.73
281.0, 0.0421, 90.76
281.5, 0.0421, 90.77
282.0, 0.0419, 90.81
282.5, 0.0419, 90.80
283.0, 0.0418, 90.81
283.5, 0.0417, 90.84
284.0, 0.0418, 90.83
284.5, 0.0417, 90.84
285.0, 0.0417, 90.85
285.5, 0.0415, 90.89
286.0, 0.0415, 90.89
286.5, 0.0415, 90.90
287.0, 0.0413, 90.93
287.5, 0.0413, 90.94
288.0, 0.0411, 90.97
288.5, 0.0411, 90.98
289.0, 0.0410, 90.98
289.5, 0.0411, 90.98
290.0, 0.0410, 90.99
290.5, 0.0409, 91.01
291.0, 0.0408, 91.02
291.5, 0.0407, 91.05
292.0, 0.0407, 91.05
292.5, 0.0406, 91.08
293.0, 0.0406, 91.07
293.5, 0.0405, 91.09
294.0, 0.0405, 91.09
294.5, 0.0405, 91.09
295.0, 0.0405, 91.11
295.5, 0.0404, 91.12
296.0, 0.0404, 91.12
296.5, 0.0403, 91.14
297.0, 0.0403, 91.13
297.5, 0.0402, 91.15
298.0, 0.0401, 91.17
298.5, 0.0401, 91.18
299.0, 0.0401, 91.19
299.5, 0.0401, 91.17
300.0, 0.0401, 91.17
300.5, 0.0401, 91.19
301.0, 0.0400, 91.20
301.5, 0.0399, 91.22
302.0, 0.0398, 91.24
302.5, 0.0398, 91.24
303.0, 0.0398, 91.25
303.5, 0.0397, 91.26
304.0, 0.0397, 91.27
304.5, 0.0398, 91.24
305.0, 0.0397, 91.26
305.5, 0.0397, 91.26
306.0, 0.0395, 91.30
306.5, 0.0395, 91.30
307.0, 0.0394, 91.32
307.5, 0.0394, 91.32
308.0, 0.0394, 91.32
308.5, 0.0393, 91.35
309.0, 0.0394, 91.34
309.5, 0.0393, 91.34
310.0, 0.0394, 91.33
310.5, 0.0393, 91.35
311.0, 0.0392, 91.37
311.5, 0.0391, 91.39
312.0, 0.0391, 91.39
312.5, 0.0390, 91.42
313.0, 0.0390, 91.41
313.5, 0.0389, 91.43
314.0, 0.0389, 91.43
314.5, 0.0390, 91.41
315.0, 0.0389, 91.44
315.5, 0.0388, 91.45
316.0, 0.0388, 91.45
316.5, 0.0387, 91.47
317.0, 0.0387, 91.48
317.5, 0.0387, 91.47
318.0, 0.0386, 91.50
318.5, 0.0386, 91.49
319.0, 0.0386, 91.49
319.5, 0.0387, 91.47
320.0, 0.0386, 91.50
320.5, 0.0385, 91.52
321.0, 0.0384, 91.55
321.5, 0.0384, 91.54
322.0, 0.0384, 91.54
322.5, 0.0383, 91.55
323.0, 0.0383, 91.56
323.5, 0.0383, 91.55
324.0, 0.0383, 91.57
324.5, 0.0383, 91.56
325.0, 0.0382, 91.57
325.5, 0.0381, 91.59
326.0, 0.0381, 91.61
326.5, 0.0381, 91.61
327.0, 0.0380, 91.63
327.5, 0.0380, 91.62
328.0, 0.0379, 91.65
328.5, 0.0379, 91.64
329.0, 0.0380, 91.62
329.5, 0.0379, 91.65
330.0, 0.0378, 91.66
330.5, 0.0377, 91.68
331.0, 0.0376, 91.71
331.5, 0.0376, 91.70
332.0, 0.0376, 91.70
332.5, 0.0376, 91.70
333.0, 0.0376, 91.72
333.5, 0.0377, 91.69
334.0, 0.0376, 91.70
334.5, 0.0375, 91.73
335.0, 0.0374, 91.75
335.5, 0.0374, 91.76
336.0, 0.0373, 91.77
336.5, 0.0373, 91.77
337.0, 0.0373, 91.77
337.5, 0.0374, 91.75
338.0, 0.0374, 91.74
338.5, 0.0373, 91.76
339.0, 0.0373, 91.76
339.5, 0.0379, 91.64
340.0, 0.0377, 91.69
340.5, 0.0378, 91.67
341.0, 0.0379, 91.64
341.5, 0.0378, 91.67
342.0, 0.0376, 91.70
342.5, 0.0377, 91.69
343.0, 0.0377, 91.68
343.5, 0.0376, 91.71
344.0, 0.0377, 91.68
344.5, 0.0377, 91.69
345.0, 0.0374, 91.75
345.5, 0.0374, 91.75
346.0, 0.0375, 91.73
346.5, 0.0373, 91.77
347.0, 0.0373, 91.78
347.5, 0.0372, 91.79
348.0, 0.0373, 91.78
348.5, 0.0373, 91.78
349.0, 0.0372, 91.78
349.5, 0.0372, 91.79
350.0, 0.0371, 91.81
350.5, 0.0370, 91.83
351.0, 0.0370, 91.83
351.5, 0.0369, 91.85
352.0, 0.0369, 91.85
352.5, 0.0370, 91.84
353.0, 0.0369, 91.85
353.5, 0.0368, 91.87
354.0, 0.0368, 91.87
354.5, 0.0367, 91.89
355.0, 0.0367, 91.90
355.5, 0.0367, 91.90
356.0, 0.0367, 91.90
356.5, 0.0366, 91.93
357.0, 0.0366, 91.92
357.5, 0.0366, 91.92
358.0, 0.0365, 91.94
358.5, 0.0366, 91.93
359.0, 0.0365, 91.95
359.5, 0.0363, 91.98
360.0, 0.0363, 91.97
360.5, 0.0363, 91.98
361.0, 0.0363, 91.98
361.5, 0.0362, 92.00
362.0, 0.0362, 92.00
362.5, 0.0361, 92.02
363.0, 0.0361, 92.01
363.5, 0.0362, 92.01
364.0, 0.0361, 92.02
364.5, 0.0361, 92.03
365.0, 0.0360, 92.05
365.5, 0.0359, 92.06
366.0, 0.0359, 92.07
366.5, 0.0359, 92.07
367.0, 0.0359, 92.07
367.5, 0.0358, 92.09
368.0, 0.0358, 92.09
368.5, 0.0357, 92.10
369.0, 0.0358, 92.08
369.5, 0.0358, 92.08
370.0, 0.0357, 92.10
370.5, 0.0357, 92.10
371.0, 0.0357, 92.10
371.5, 0.0357, 92.11
372.0, 0.0357, 92.11
372.5, 0.0356, 92.13
373.0, 0.0357, 92.11
373.5, 0.0357, 92.11
374.0, 0.0356, 92.14
374.5, 0.0356, 92.12
375.0, 0.0356, 92.12
375.5, 0.0356, 92.13
376.0, 0.0355, 92.15
376.5, 0.0355, 92.16
377.0, 0.0356, 92.14
377.5, 0.0357, 92.10
378.0, 0.0357, 92.12
378.5, 0.0357, 92.12
379.0, 0.0355, 92.15
379.5, 0.0355, 92.14
380.0, 0.0355, 92.15
380.5, 0.0355, 92.16
381.0, 0.0355, 92.16
381.5, 0.0355, 92.16
382.0, 0.0356, 92.13
382.5, 0.0355, 92.14
383.0, 0.0356, 92.14
383.5, 0.0355, 92.15
384.0, 0.0355, 92.16
384.5, 0.0355, 92.16
385.0, 0.0354, 92.17
385.5, 0.0354, 92.17
386.0, 0.0353, 92.18
386.5, 0.0353, 92.18
387.0, 0.0354, 92.17
387.5, 0.0353, 92.18
388.0, 0.0353, 92.18
388.5, 0.0354, 92.18
389.0, 0.0352, 92.20
389.5, 0.0353, 92.19
390.0, 0.0353, 92.20
390.5, 0.0354, 92.18
391.0, 0.0353, 92.19
391.5, 0.0352, 92.21
392.0, 0.0354, 92.17
392.5, 0.0355, 92.16
393.0, 0.0353, 92.18
393.5, 0.0354, 92.17
394.0, 0.0353, 92.20
394.5, 0.0353, 92.20
395.0, 0.0352, 92.21
395.5, 0.0352, 92.22
396.0, 0.0352, 92.22
396.5, 0.0353, 92.19
397.0, 0.0352, 92.21
397.5, 0.0353, 92.20
398.0, 0.0353, 92.20
398.5, 0.0352, 92.22
399.0, 0.0352, 92.22
399.5, 0.0353, 92.20
400.0, 0.0353, 92.20
400.5, 0.0351, 92.23
401.0, 0.0352, 92.22
401.5, 0.0352, 92.22
402.0, 0.0353, 92.20
402.5, 0.0351, 92.23
403.0, 0.0352, 92.22
403.5, 0.0351, 92.23
404.0, 0.0352, 92.22
404.5, 0.0352, 92.22
405.0, 0.0350, 92.25
405.5, 0.0350, 92.25
406.0, 0.0351, 92.24
406.5, 0.0351, 92.24
407.0, 0.0352, 92.22
407.5, 0.0351, 92.23
408.0, 0.0351, 92.24
408.5, 0.0351, 92.24
409.0, 0.0351, 92.24
409.5, 0.0350, 92.25
410.0, 0.0350, 92.26
410.5, 0.0350, 92.26
411.0, 0.0350, 92.27
411.5, 0.0350, 92.25
412.0, 0.0350, 92.25
412.5, 0.0351, 92.25
413.0, 0.0350, 92.25
413.5, 0.0350, 92.25
414.0, 0.0350, 92.26
414.5, 0.0350, 92.26
415.0, 0.0350, 92.26
415.5, 0.0349, 92.28
416.0, 0.0350, 92.26
416.5, 0.0350, 92.27
417.0, 0.0349, 92.28
417.5, 0.0349, 92.27
418.0, 0.0350, 92.26
418.5, 0.0349, 92.28
419.0, 0.0349, 92.28
419.5, 0.0349, 92.28
420.0, 0.0349, 92.28
420.5, 0.0349, 92.29
421.0, 0.0349, 92.29
421.5, 0.0349, 92.29
422.0, 0.0348, 92.29
422.5, 0.0349, 92.29
423.0, 0.0348, 92.29
423.5, 0.0348, 92.30
424.0, 0.0348, 92.30
424.5, 0.0348, 92.30
425.0, 0.0347, 92.32
425.5, 0.0348, 92.30
426.0, 0.0348, 92.31
426.5, 0.0348, 92.30
427.0, 0.0348, 92.31
427.5, 0.0347, 92.31
428.0, 0.0347, 92.32
428.5, 0.0347, 92.32
429.0, 0.0347, 92.32
429.5, 0.0347, 92.32
430.0, 0.0347, 92.32
430.5, 0.0347, 92.32
431.0, 0.0347, 92.32
431.5, 0.0347, 92.32
432.0, 0.0346, 92.34
432.5, 0.0346, 92.33
433.0, 0.0346, 92.34
433.5, 0.0346, 92.34
434.0, 0.0346, 92.35
434.5, 0.0346, 92.34
435.0, 0.0346, 92.35
435.5, 0.0346, 92.34
436.0, 0.0346, 92.35
436.5, 0.0346, 92.35
437.0, 0.0345, 92.36
437.5, 0.0346, 92.34
438.0, 0.0345, 92.35
438.5, 0.0345, 92.36
439.0, 0.0345, 92.36
439.5, 0.0345, 92.36
440.0, 0.0346, 92.35
440.5, 0.0345, 92.35
441.0, 0.0345, 92.36
441.5, 0.0345, 92.37
442.0, 0.0345, 92.36
442.5, 0.0345, 92.36
443.0, 0.0345, 92.37
443.5, 0.0344, 92.38
444.0, 0.0344, 92.38
444.5, 0.0345, 92.37
445.0, 0.0345, 92.37
445.5, 0.0344, 92.38
446.0, 0.0345, 92.37
446.5, 0.0345, 92.37
447.0, 0.0345, 92.37
447.5, 0.0344, 92.38
448.0, 0.0343, 92.40
448.5, 0.0344, 92.39
449.0, 0.0343, 92.41
449.5, 0.0344, 92.39
450.0, 0.0343, 92.40
450.5, 0.0343, 92.41
451.0, 0.0342, 92.43
451.5, 0.0343, 92.41
452.0, 0.0341, 92.44
452.5, 0.0342, 92.42
453.0, 0.0342, 92.42
453.5, 0.0342, 92.43
454.0, 0.0342, 92.43
454.5, 0.0341, 92.44
455.0, 0.0342, 92.42
455.5, 0.0341, 92.45
456.0, 0.0342, 92.44
456.5, 0.0341, 92.45
457.0, 0.0341, 92.45
457.5, 0.0342, 92.44
458.0, 0.0341, 92.45
458.5, 0.0341, 92.44
459.0, 0.0341, 92.45
459.5, 0.0340, 92.46
460.0, 0.0341, 92.45
460.5, 0.0340, 92.46
461.0, 0.0341, 92.46
461.5, 0.0340, 92.47
462.0, 0.0341, 92.46
462.5, 0.0340, 92.47
463.0, 0.0340, 92.47
463.5, 0.0340, 92.47
464.0, 0.0340, 92.46
464.5, 0.0340, 92.47
465.0, 0.0341, 92.46
465.5, 0.0340, 92.48
466.0, 0.0340, 92.46
466.5, 0.0339, 92.48
467.0, 0.0340, 92.47
467.5, 0.0340, 92.47
468.0, 0.0340, 92.48
468.5, 0.0340, 92.48
469.0, 0.0339, 92.49
469.5, 0.0339, 92.49
470.0, 0.0339, 92.49
470.5, 0.0340, 92.48
471.0, 0.0339, 92.48
471.5, 0.0339, 92.50
472.0, 0.0339, 92.49
472.5, 0.0339, 92.48
473.0, 0.0339, 92.49
473.5, 0.0338, 92.51
474.0, 0.0338, 92.51
474.5, 0.0339, 92.50
475.0, 0.0339, 92.50
475.5, 0.0338, 92.51
476.0, 0.0338, 92.51
476.5, 0.0338, 92.51
477.0, 0.0338, 92.51
477.5, 0.0339, 92.50
478.0, 0.0338, 92.52
478.5, 0.0337, 92.53
479.0, 0.0338, 92.51
479.5, 0.0338, 92.51
480.0, 0.0338, 92.51
480.5, 0.0338, 92.51
481.0, 0.0338, 92.52
481.5, 0.0338, 92.51
482.0, 0.0338, 92.52
482.5, 0.0338, 92.52
483.0, 0.0338, 92.52
483.5, 0.0337, 92.54
484.0, 0.0338, 92.52
484.5, 0.0337, 92.53
485.0, 0.0337, 92.54
485.5, 0.0336, 92.55
486.0, 0.0337, 92.54
486.5, 0.0336, 92.55
487.0, 0.0337, 92.54
487.5, 0.0337, 92.54
488.0, 0.0337, 92.54
488.5, 0.0335, 92.57
489.0, 0.0336, 92.56
489.5, 0.0336, 92.56
490.0, 0.0336, 92.55
490.5, 0.0336, 92.56
491.0, 0.0336, 92.55
491.5, 0.0336, 92.56
492.0, 0.0336, 92.55
492.5, 0.0336, 92.56
493.0, 0.0335, 92.57
493.5, 0.0336, 92.56
494.0, 0.0336, 92.56
494.5, 0.0336, 92.56
495.0, 0.0335, 92.57
495.5, 0.0335, 92.57
496.0, 0.0335, 92.57
496.5, 0.0335, 92.57
497.0, 0.0335, 92.58
497.5, 0.0335, 92.58
498.0, 0.0334, 92.59
498.5, 0.0335, 92.57
499.0, 0.0334, 92.59
499.5, 0.0334, 92.60
500.0, 0.0334, 92.59
500.5, 0.0334, 92.59
501.0, 0.0335, 92.59
501.5, 0.0334, 92.59
502.0, 0.0334, 92.60
502.5, 0.0334, 92.59
503.0, 0.0334, 92.60
503.5, 0.0334, 92.59
504.0, 0.0334, 92.60
504.5, 0.0333, 92.61
505.0, 0.0334, 92.60
505.5, 0.0333, 92.61
506.0, 0.0333, 92.62
506.5, 0.0334, 92.60
507.0, 0.0334, 92.59
507.5, 0.0334, 92.60
508.0, 0.0334, 92.60
508.5, 0.0334, 92.61
509.0, 0.0334, 92.59
509.5, 0.0334, 92.59
510.0, 0.0334, 92.60
510.5, 0.0334, 92.59
511.0, 0.0334, 92.59
511.5, 0.0334, 92.60
512.0, 0.0334, 92.60
512.5, 0.0333, 92.61
513.0, 0.0334, 92.60
513.5, 0.0335, 92.59
514.0, 0.0334, 92.60
514.5, 0.0333, 92.61
515.0, 0.0334, 92.60
515.5, 0.0334, 92.60
516.0, 0.0334, 92.60
516.5, 0.0334, 92.59
517.0, 0.0334, 92.60
517.5, 0.0333, 92.62
518.0, 0.0333, 92.62
518.5, 0.0334, 92.60
519.0, 0.0333, 92.61
519.5, 0.0333, 92.63
520.0, 0.0332, 92.63
520.5, 0.0333, 92.62
521.0, 0.0333, 92.62
521.5, 0.0332, 92.64
522.0, 0.0332, 92.64
522.5, 0.0332, 92.63
523.0, 0.0333, 92.63
523.5, 0.0333, 92.63
524.0, 0.0332, 92.65
524.5, 0.0331, 92.65
525.0, 0.0332, 92.64
525.5, 0.0332, 92.64
526.0, 0.0332, 92.63
526.5, 0.0332, 92.64
527.0, 0.0332, 92.64
527.5, 0.0332, 92.64
528.0, 0.0332, 92.64
528.5, 0.0332, 92.65
529.0, 0.0332, 92.65
529.5, 0.0332, 92.65
530.0, 0.0332, 92.64
530.5, 0.0332, 92.65
531.0, 0.0333, 92.63
531.5, 0.0332, 92.64
532.0, 0.0331, 92.65
532.5, 0.0331, 92.66
533.0, 0.0331, 92.65
533.5, 0.0331, 92.65
534.0, 0.0331, 92.67
534.5, 0.0330, 92.67
535.0, 0.0331, 92.67
535.5, 0.0331, 92.66
536.0, 0.0332, 92.65
536.5, 0.0331, 92.67
537.0, 0.0331, 92.66
537.5, 0.0331, 92.66
538.0, 0.0331, 92.66
538.5, 0.0331, 92.67
539.0, 0.0331, 92.67
539.5, 0.0330, 92.68
540.0, 0.0331, 92.66
540.5, 0.0331, 92.66
541.0, 0.0330, 92.68
541.5, 0.0331, 92.67
542.0, 0.0330, 92.67
542.5, 0.0331, 92.67
543.0, 0.0330, 92.69
543.5, 0.0330, 92.68
544.0, 0.0329, 92.70
544.5, 0.0330, 92.68
545.0, 0.0330, 92.68
545.5, 0.0330, 92.67
546.0, 0.0330, 92.68
546.5, 0.0329, 92.69
547.0, 0.0330, 92.68
547.5, 0.0330, 92.68
548.0, 0.0330, 92.69
548.5, 0.0330, 92.68
549.0, 0.0329, 92.70
549.5, 0.0330, 92.68
550.0, 0.0330, 92.68
550.5, 0.0330, 92.68
551.0, 0.0330, 92.68
551.5, 0.0330, 92.69
552.0, 0.0330, 92.68
552.5, 0.0330, 92.68
553.0, 0.0330, 92.69
553.5, 0.0330, 92.69
554.0, 0.0330, 92.69
554.5, 0.0329, 92.70
555.0, 0.0329, 92.70
555.5, 0.0329, 92.70
556.0, 0.0329, 92.70
556.5, 0.0329, 92.71
557.0, 0.0329, 92.70
557.5, 0.0330, 92.69
558.0, 0.0329, 92.71
558.5, 0.0329, 92.69
559.0, 0.0329, 92.70
559.5, 0.0330, 92.69
560.0, 0.0329, 92.71
560.5, 0.0329, 92.71
561.0, 0.0328, 92.72
561.5, 0.0329, 92.71
562.0, 0.0329, 92.70
562.5, 0.0328, 92.72
563.0, 0.0328, 92.72
563.5, 0.0329, 92.71
564.0, 0.0328, 92.72
564.5, 0.0329, 92.70
565.0, 0.0328, 92.72
565.5, 0.0329, 92.71
566.0, 0.0328, 92.72
566.5, 0.0329, 92.71
567.0, 0.0329, 92.70
567.5, 0.0329, 92.71
568.0, 0.0329, 92.71
568.5, 0.0328, 92.72
569.0, 0.0328, 92.72
569.5, 0.0328, 92.72
570.0, 0.0329, 92.71
570.5, 0.0328, 92.73
571.0, 0.0328, 92.72
571.5, 0.0328, 92.73
572.0, 0.0328, 92.72
572.5, 0.0328, 92.73
573.0, 0.0328, 92.73
573.5, 0.0329, 92.69
574.0, 0.0328, 92.73
574.5, 0.0328, 92.72
575.0, 0.0328, 92.72
575.5, 0.0328, 92.72
576.0, 0.0328, 92.73
576.5, 0.0329, 92.71
577.0, 0.0329, 92.71
577.5, 0.0327, 92.74
578.0, 0.0328, 92.73
578.5, 0.0325, 92.80
579.0, 0.0325, 92.78
579.5, 0.0325, 92.79
580.0, 0.0325, 92.78
580.5, 0.0325, 92.79
581.0, 0.0325, 92.78
581.5, 0.0325, 92.78
582.0, 0.0326, 92.77
582.5, 0.0325, 92.78
583.0, 0.0326, 92.77
583.5, 0.0326, 92.76
584.0, 0.0326, 92.77
584.5, 0.0326, 92.76
585.0, 0.0326, 92.77
585.5, 0.0326, 92.76
586.0, 0.0326, 92.77
586.5, 0.0326, 92.77
587.0, 0.0326, 92.77
587.5, 0.0327, 92.75
588.0, 0.0327, 92.75
588.5, 0.0326, 92.76
589.0, 0.0327, 92.75
589.5, 0.0326, 92.76
590.0, 0.0327, 92.75
590.5, 0.0326, 92.77
591.0, 0.0327, 92.75
591.5, 0.0327, 92.76
592.0, 0.0326, 92.76
592.5, 0.0326, 92.77
593.0, 0.0326, 92.76
593.5, 0.0326, 92.77
594.0, 0.0326, 92.77
594.5, 0.0327, 92.76
595.0, 0.0326, 92.78
595.5, 0.0326, 92.78
596.0, 0.0326, 92.78
596.5, 0.0326, 92.76
597.0, 0.0326, 92.77
597.5, 0.0326, 92.78
598.0, 0.0327, 92.75
598.5, 0.0326, 92.76
599.0, 0.0326, 92.76
599.5, 0.0326, 92.77
600.0, 0.0326, 92.77
600.5, 0.0326, 92.77
601.0, 0.0326, 92.77
601.5, 0.0325, 92.78
602.0, 0.0326, 92.77
602.5, 0.0325, 92.79
603.0, 0.0325, 92.78
603.5, 0.0326, 92.77
604.0, 0.0325, 92.78
604.5, 0.0325, 92.80
605.0, 0.0325, 92.79
605.5, 0.0325, 92.78
606.0, 0.0326, 92.77
606.5, 0.0325, 92.78
607.0, 0.0325, 92.78
607.5, 0.0326, 92.77
608.0, 0.0326, 92.78
608.5, 0.0325, 92.79
609.0, 0.0325, 92.78
609.5, 0.0325, 92.78
610.0, 0.0326, 92.78
610.5, 0.0325, 92.78
611.0, 0.0326, 92.77
611.5, 0.0325, 92.78
612.0, 0.0325, 92.79
612.5, 0.0325, 92.78
613.0, 0.0325, 92.80
613.5, 0.0325, 92.79
614.0, 0.0325, 92.80
614.5, 0.0326, 92.77
615.0, 0.0325, 92.78
615.5, 0.0325, 92.79
616.0, 0.0325, 92.79
616.5, 0.0325, 92.80
617.0, 0.0325, 92.80
617.5, 0.0325, 92.79
618.0, 0.0325, 92.79
618.5, 0.0325, 92.80
619.0, 0.0325, 92.78
619.5, 0.0325, 92.78
620.0, 0.0324, 92.80
620.5, 0.0325, 92.80
621.0, 0.0324, 92.81
621.5, 0.0324, 92.81
622.0, 0.0324, 92.80
622.5, 0.0325, 92.78
623.0, 0.0324, 92.81
623.5, 0.0324, 92.81
624.0, 0.0324, 92.81
624.5, 0.0325, 92.79
625.0, 0.0324, 92.80
625.5, 0.0325, 92.79
626.0, 0.0325, 92.79
626.5, 0.0325, 92.80
627.0, 0.0324, 92.81
627.5, 0.0324, 92.80
628.0, 0.0325, 92.79
628.5, 0.0324, 92.81
629.0, 0.0324, 92.81
629.5, 0.0324, 92.81
630.0, 0.0324, 92.81
630.5, 0.0324, 92.82
631.0, 0.0324, 92.80
631.5, 0.0324, 92.80
632.0, 0.0324, 92.82
632.5, 0.0323, 92.82
633.0, 0.0325, 92.80
633.5, 0.0324, 92.80
634.0, 0.0324, 92.81
634.5, 0.0325, 92.80
635.0, 0.0324, 92.81
635.5, 0.0325, 92.80
636.0, 0.0324, 92.81
636.5, 0.0324, 92.80
637.0, 0.0324, 92.80
637.5, 0.0324, 92.81
638.0, 0.0324, 92.80
638.5, 0.0324, 92.82
639.0, 0.0324, 92.80
639.5, 0.0324, 92.80
640.0, 0.0324, 92.80
640.5, 0.0324, 92.82
641.0, 0.0324, 92.81
641.5, 0.0324, 92.80
642.0, 0.0324, 92.82
642.5, 0.0324, 92.81
643.0, 0.0324, 92.82
643.5, 0.0324, 92.81
644.0, 0.0324, 92.81
644.5, 0.0323, 92.82
645.0, 0.0324, 92.82
645.5, 0.0323, 92.83
646.0, 0.0324, 92.82
646.5, 0.0324, 92.82
647.0, 0.0324, 92.81
647.5, 0.0324, 92.81
648.0, 0.0324, 92.81
648.5, 0.0324, 92.82
649.0, 0.0324, 92.81
649.5, 0.0324, 92.82
650.0, 0.0324, 92.81
650.5, 0.0324, 92.82
651.0, 0.0323, 92.83
651.5, 0.0323, 92.83
652.0, 0.0323, 92.83
652.5, 0.0325, 92.80
653.0, 0.0323, 92.83
653.5, 0.0324, 92.82
654.0, 0.0324, 92.81
654.5, 0.0323, 92.82
655.0, 0.0323, 92.83
655.5, 0.0323, 92.82
656.0, 0.0323, 92.84
656.5, 0.0323, 92.83
657.0, 0.0323, 92.82
657.5, 0.0323, 92.83
658.0, 0.0324, 92.82
658.5, 0.0323, 92.83
659.0, 0.0323, 92.83
659.5, 0.0323, 92.84
660.0, 0.0323, 92.84
660.5, 0.0323, 92.83
661.0, 0.0324, 92.82
661.5, 0.0323, 92.83
662.0, 0.0323, 92.83
662.5, 0.0323, 92.84
663.0, 0.0324, 92.82
663.5, 0.0323, 92.83
664.0, 0.0323, 92.83
664.5, 0.0323, 92.84
665.0, 0.0323, 92.83
665.5, 0.0322, 92.85
666.0, 0.0324, 92.82
666.5, 0.0323, 92.84
667.0, 0.0322, 92.85
667.5, 0.0323, 92.83
668.0, 0.0323, 92.82
668.5, 0.0322, 92.86
669.0, 0.0323, 92.84
669.5, 0.0323, 92.84
670.0, 0.0323, 92.84
670.5, 0.0322, 92.85
671.0, 0.0323, 92.84
671.5, 0.0322, 92.84
672.0, 0.0323, 92.83
672.5, 0.0323, 92.83
673.0, 0.0322, 92.84
673.5, 0.0323, 92.84
674.0, 0.0323, 92.83
674.5, 0.0322, 92.84
675.0, 0.0323, 92.84
675.5, 0.0322, 92.85
676.0, 0.0322, 92.85
676.5, 0.0323, 92.83
677.0, 0.0322, 92.86
677.5, 0.0322, 92.85
678.0, 0.0323, 92.84
678.5, 0.0323, 92.84
679.0, 0.0323, 92.84
679.5, 0.0322, 92.85
680.0, 0.0322, 92.85
680.5, 0.0322, 92.86
681.0, 0.0322, 92.84
681.5, 0.0322, 92.85
682.0, 0.0322, 92.85
682.5, 0.0321, 92.87
683.0, 0.0322, 92.86
683.5, 0.0322, 92.85
684.0, 0.0322, 92.86
684.5, 0.0322, 92.86
685.0, 0.0322, 92.86
685.5, 0.0322, 92.84
686.0, 0.0322, 92.86
686.5, 0.0322, 92.86
687.0, 0.0322, 92.86
687.5, 0.0322, 92.86
688.0, 0.0322, 92.84
688.5, 0.0321, 92.87
689.0, 0.0321, 92.87
689.5, 0.0321, 92.87
690.0, 0.0322, 92.86
690.5, 0.0322, 92.85
691.0, 0.0321, 92.88
691.5, 0.0321, 92.88
692.0, 0.0321, 92.87
692.5, 0.0322, 92.86
693.0, 0.0321, 92.87
693.5, 0.0322, 92.86
694.0, 0.0321, 92.89
694.5, 0.0321, 92.87
695.0, 0.0321, 92.87
695.5, 0.0321, 92.87
696.0, 0.0321, 92.87
696.5, 0.0320, 92.89
697.0, 0.0321, 92.87
697.5, 0.0322, 92.86
698.0, 0.0322, 92.86
698.5, 0.0321, 92.88
699.0, 0.0321, 92.88
699.5, 0.0321, 92.88
700.0, 0.0321, 92.88
700.5, 0.0322, 92.86
701.0, 0.0321, 92.88
701.5, 0.0321, 92.88
702.0, 0.0322, 92.86
702.5, 0.0321, 92.87
703.0, 0.0322, 92.86
703.5, 0.0321, 92.88
704.0, 0.0321, 92.87
704.5, 0.0322, 92.86
705.0, 0.0321, 92.87
705.5, 0.0322, 92.86
706.0, 0.0321, 92.88
706.5, 0.0321, 92.88
707.0, 0.0322, 92.85
707.5, 0.0322, 92.86
708.0, 0.0322, 92.86
708.5, 0.0321, 92.87
709.0, 0.0321, 92.87
709.5, 0.0321, 92.87
710.0, 0.0321, 92.87
710.5, 0.0318, 92.93
711.0, 0.0318, 92.93
711.5, 0.0319, 92.93
712.0, 0.0319, 92.92
712.5, 0.0319, 92.91
713.0, 0.0319, 92.91
713.5, 0.0319, 92.91
714.0, 0.0319, 92.91
714.5, 0.0319, 92.91
715.0, 0.0320, 92.90
715.5, 0.0319, 92.91
716.0, 0.0319, 92.91
716.5, 0.0319, 92.91
717.0, 0.0320, 92.90
717.5, 0.0320, 92.90
718.0, 0.0320, 92.89
718.5, 0.0320, 92.89
719.0, 0.0320, 92.90
719.5, 0.0320, 92.89
720.0, 0.0321, 92.88
720.5, 0.0320, 92.89
721.0, 0.0321, 92.88
721.5, 0.0321, 92.87
722.0, 0.0321, 92.88
722.5, 0.0321, 92.87
723.0, 0.0321, 92.87
723.5, 0.0321, 92.86
724.0, 0.0322, 92.86
724.5, 0.0322, 92.86
725.0, 0.0322, 92.85
725.5, 0.0322, 92.86
726.0, 0.0322, 92.85
726.5, 0.0323, 92.84
727.0, 0.0323, 92.83
727.5, 0.0323, 92.84
728.0, 0.0323, 92.83
728.5, 0.0324, 92.82
729.0, 0.0324, 92.81
729.5, 0.0324, 92.81
730.0, 0.0324, 92.80
730.5, 0.0324, 92.81
731.0, 0.0325, 92.78
731.5, 0.0325, 92.78
732.0, 0.0326, 92.77
732.5, 0.0325, 92.78
733.0, 0.0326, 92.78
733.5, 0.0326, 92.77
734.0, 0.0326, 92.76
734.5, 0.0326, 92.76
735.0, 0.0327, 92.76
735.5, 0.0327, 92.75
736.0, 0.0327, 92.75
736.5, 0.0327, 92.74
737.0, 0.0328, 92.73
737.5, 0.0328, 92.73
738.0, 0.0328, 92.72
738.5, 0.0328, 92.73
739.0, 0.0328, 92.72
739.5, 0.0328, 92.73
740.0, 0.0327, 92.74
740.5, 0.0328, 92.73
741.0, 0.0328, 92.73
741.5, 0.0328, 92.73
742.0, 0.0328, 92.73
742.5, 0.0327, 92.74
743.0, 0.0328, 92.73
743.5, 0.0328, 92.72
744.0, 0.0328, 92.73
744.5, 0.0328, 92.72
745.0, 0.0328, 92.73
745.5, 0.0328, 92.73
746.0, 0.0328, 92.73
746.5, 0.0328, 92.72
747.0, 0.0328, 92.72
747.5, 0.0329, 92.71
748.0, 0.0327, 92.74
748.5, 0.0327, 92.74
749.0, 0.0328, 92.72
749.5, 0.0328, 92.73
750.0, 0.0328, 92.73
750.5, 0.0328, 92.73
751.0, 0.0328, 92.73
751.5, 0.0328, 92.74
752.0, 0.0328, 92.74
752.5, 0.0328, 92.72
753.0, 0.0327, 92.74
753.5, 0.0328, 92.74
754.0, 0.0327, 92.74
754.5, 0.0328, 92.73
755.0, 0.0328, 92.72
755.5, 0.0328, 92.73
756.0, 0.0327, 92.74
756.5, 0.0328, 92.73
757.0, 0.0327, 92.74
757.5, 0.0328, 92.73
758.0, 0.0328, 92.73
758.5, 0.0327, 92.75
759.0, 0.0328, 92.73
759.5, 0.0328, 92.73
760.0, 0.0328, 92.73
760.5, 0.0327, 92.74
761.0, 0.0328, 92.73
761.5, 0.0327, 92.75
762.0, 0.0328, 92.72
762.5, 0.0327, 92.74
763.0, 0.0327, 92.76
763.5, 0.0327, 92.74
764.0, 0.0326, 92.76
764.5, 0.0327, 92.74
765.0, 0.0327, 92.74
765.5, 0.0327, 92.74
766.0, 0.0327, 92.75
766.5, 0.0327, 92.75
767.0, 0.0327, 92.74
767.5, 0.0328, 92.73
768.0, 0.0327, 92.75
768.5, 0.0327, 92.76
769.0, 0.0327, 92.74
769.5, 0.0327, 92.74
770.0, 0.0327, 92.75
770.5, 0.0327, 92.75
771.0, 0.0327, 92.74
771.5, 0.0327, 92.75
772.0, 0.0327, 92.75
772.5, 0.0327, 92.75
773.0, 0.0327, 92.75
773.5, 0.0327, 92.74
774.0, 0.0327, 92.75
774.5, 0.0327, 92.74
775.0, 0.0327, 92.75
775.5, 0.0327, 92.75
776.0, 0.0327, 92.75
776.5, 0.0327, 92.75
777.0, 0.0326, 92.77
777.5, 0.0326, 92.78
778.0, 0.0326, 92.77
778.5, 0.0325, 92.78
779.0, 0.0325, 92.78
779.5, 0.0326, 92.78
780.0, 0.0326, 92.77
780.5, 0.0326, 92.78
781.0, 0.0325, 92.78
781.5, 0.0325, 92.78
782.0, 0.0325, 92.78
782.5, 0.0326, 92.78
783.0, 0.0326, 92.77
783.5, 0.0324, 92.80
784.0, 0.0325, 92.79
784.5, 0.0325, 92.79
785.0, 0.0325, 92.79
785.5, 0.0325, 92.79
786.0, 0.0324, 92.80
786.5, 0.0324, 92.81
787.0, 0.0324, 92.81
787.5, 0.0325, 92.78
788.0, 0.0325, 92.79
788.5, 0.0324, 92.81
789.0, 0.0324, 92.80
789.5, 0.0324, 92.81
790.0, 0.0325, 92.79
790.5, 0.0324, 92.82
791.0, 0.0325, 92.80
791.5, 0.0324, 92.81
792.0, 0.0324, 92.82
792.5, 0.0324, 92.82
793.0, 0.0323, 92.83
793.5, 0.0323, 92.82
794.0, 0.0325, 92.80
794.5, 0.0324, 92.81
795.0, 0.0324, 92.81
795.5, 0.0324, 92.81
796.0, 0.0324, 92.82
796.5, 0.0324, 92.81
797.0, 0.0323, 92.83
797.5, 0.0324, 92.82
798.0, 0.0324, 92.82
798.5, 0.0323, 92.83
799.0, 0.0323, 92.82
799.5, 0.0323, 92.83
800.0, 0.0324, 92.82
800.5, 0.0319, 92.91
801.0, 0.0319, 92.92
801.5, 0.0319, 92.91
802.0, 0.0319, 92.91
802.5, 0.0320, 92.89
803.0, 0.0320, 92.91
803.5, 0.0320, 92.90
804.0, 0.0320, 92.90
804.5, 0.0320, 92.90
805.0, 0.0321, 92.88
805.5, 0.0320, 92.90
806.0, 0.0321, 92.88
806.5, 0.0320, 92.89
807.0, 0.0320, 92.90
807.5, 0.0320, 92.89
808.0, 0.0321, 92.88
808.5, 0.0321, 92.87
809.0, 0.0320, 92.90
809.5, 0.0321, 92.87
810.0, 0.0320, 92.89
810.5, 0.0321, 92.87
811.0, 0.0321, 92.89
811.5, 0.0321, 92.88
812.0, 0.0321, 92.87
812.5, 0.0321, 92.88
813.0, 0.0320, 92.89
813.5, 0.0321, 92.88
814.0, 0.0322, 92.86
814.5, 0.0321, 92.87
815.0, 0.0321, 92.87
815.5, 0.0321, 92.88
816.0, 0.0321, 92.87
816.5, 0.0321, 92.88
817.0, 0.0321, 92.87
817.5, 0.0322, 92.86
818.0, 0.0321, 92.86
818.5, 0.0322, 92.85
819.0, 0.0322, 92.86
819.5, 0.0322, 92.85
820.0, 0.0322, 92.85
820.5, 0.0323, 92.83
821.0, 0.0322, 92.85
821.5, 0.0322, 92.85
822.0, 0.0323, 92.84
822.5, 0.0322, 92.85
823.0, 0.0323, 92.84
823.5, 0.0323, 92.84
824.0, 0.0323, 92.83
824.5, 0.0322, 92.85
825.0, 0.0323, 92.82
825.5, 0.0323, 92.83
826.0, 0.0323, 92.83
826.5, 0.0324, 92.82
827.0, 0.0325, 92.80
827.5, 0.0324, 92.81
828.0, 0.0325, 92.80
828.5, 0.0326, 92.78
829.0, 0.0325, 92.78
829.5, 0.0326, 92.78
830.0, 0.0326, 92.76
830.5, 0.0326, 92.77
831.0, 0.0326, 92.77
831.5, 0.0327, 92.76
832.0, 0.0327, 92.75
832.5, 0.0327, 92.74
833.0, 0.0328, 92.74
833.5, 0.0328, 92.74
834.0, 0.0328, 92.72
834.5, 0.0328, 92.73
835.0, 0.0328, 92.72
835.5, 0.0328, 92.72
836.0, 0.0329, 92.71
836.5, 0.0328, 92.73
837.0, 0.0328, 92.72
837.5, 0.0328, 92.72
838.0, 0.0329, 92.71
838.5, 0.0329, 92.70
839.0, 0.0329, 92.71
839.5, 0.0329, 92.70
840.0, 0.0329, 92.71
840.5, 0.0329, 92.71
841.0, 0.0329, 92.70
841.5, 0.0329, 92.70
842.0, 0.0330, 92.69
842.5, 0.0329, 92.70
843.0, 0.0330, 92.69
843.5, 0.0330, 92.69
844.0, 0.0330, 92.68
844.5, 0.0330, 92.69
845.0, 0.0330, 92.67
845.5, 0.0330, 92.69
846.0, 0.0329, 92.70
846.5, 0.0330, 92.69
847.0, 0.0330, 92.68
847.5, 0.0330, 92.68
848.0, 0.0330, 92.68
848.5, 0.0331, 92.66
849.0, 0.0330, 92.68
849.5, 0.0331, 92.67
850.0, 0.0331, 92.67
850.5, 0.0327, 92.74
851.0, 0.0328, 92.73
851.5, 0.0328, 92.73
852.0, 0.0328, 92.72
852.5, 0.0328, 92.73
853.0, 0.0328, 92.72
853.5, 0.0328, 92.72
854.0, 0.0328, 92.72
854.5, 0.0328, 92.72
855.0, 0.0328, 92.72
855.5, 0.0328, 92.72
856.0, 0.0329, 92.71
856.5, 0.0329, 92.71
857.0, 0.0328, 92.72
857.5, 0.0329, 92.71
858.0, 0.0329, 92.71
858.5, 0.0328, 92.72
859.0, 0.0329, 92.71
859.5, 0.0328, 92.72
860.0, 0.0329, 92.71
860.5, 0.0329, 92.71
861.0, 0.0329, 92.71
861.5, 0.0329, 92.70
862.0, 0.0329, 92.70
862.5, 0.0329, 92.71
863.0, 0.0329, 92.70
863.5, 0.0329, 92.70
864.0, 0.0329, 92.70
864.5, 0.0330, 92.69
865.0, 0.0329, 92.70
865.5, 0.0329, 92.70
866.0, 0.0329, 92.70
866.5, 0.0330, 92.69
867.0, 0.0330, 92.69
867.5, 0.0330, 92.69
868.0, 0.0329, 92.69
868.5, 0.0330, 92.69
869.0, 0.0330, 92.69
869.5, 0.0330, 92.69
870.0, 0.0330, 92.67
870.5, 0.0330, 92.69
871.0, 0.0330, 92.69
871.5, 0.0330, 92.69
872.0, 0.0330, 92.68
872.5, 0.0330, 92.68
873.0, 0.0331, 92.67
873.5, 0.0330, 92.68
874.0, 0.0331, 92.66
874.5, 0.0331, 92.67
875.0, 0.0331, 92.66
875.5, 0.0331, 92.66
876.0, 0.0331, 92.67
876.5, 0.0331, 92.65
877.0, 0.0331, 92.65
877.5, 0.0331, 92.65
878.0, 0.0331, 92.65
878.5, 0.0331, 92.65
879.0, 0.0332, 92.64
879.5, 0.0332, 92.65
880.0, 0.0332, 92.64
880.5, 0.0332, 92.65
881.0, 0.0332, 92.64
881.5, 0.0332, 92.63
882.0, 0.0333, 92.62
882.5, 0.0332, 92.64
883.0, 0.0333, 92.63
883.5, 0.0332, 92.64
884.0, 0.0332, 92.63
884.5, 0.0333, 92.63
885.0, 0.0333, 92.62
885.5, 0.0334, 92.61
886.0, 0.0333, 92.62
886.5, 0.0334, 92.60
887.0, 0.0333, 92.61
887.5, 0.0334, 92.60
888.0, 0.0334, 92.60
888.5, 0.0334, 92.60
889.0, 0.0334, 92.60
889.5, 0.0334, 92.60
890.0, 0.0334, 92.60
890.5, 0.0334, 92.61
891.0, 0.0335, 92.59
891.5, 0.0334, 92.60
892.0, 0.0335, 92.59
892.5, 0.0334, 92.59
893.0, 0.0335, 92.58
893.5, 0.0335, 92.58
894.0, 0.0335, 92.57
894.5, 0.0335, 92.57
895.0, 0.0335, 92.58
895.5, 0.0336, 92.55
896.0, 0.0335, 92.58
896.5, 0.0335, 92.57
897.0, 0.0335, 92.57
897.5, 0.0336, 92.56
898.0, 0.0336, 92.56
898.5, 0.0336, 92.56
899.0, 0.0336, 92.56
899.5, 0.0336, 92.56
900.0, 0.0336, 92.55
900.5, 0.0336, 92.55
901.0, 0.0336, 92.55
901.5, 0.0336, 92.55
902.0, 0.0337, 92.54
902.5, 0.0337, 92.53
903.0, 0.0337, 92.53
903.5, 0.0337, 92.53
904.0, 0.0337, 92.54
904.5, 0.0338, 92.52
905.0, 0.0337, 92.53
905.5, 0.0338, 92.51
906.0, 0.0337, 92.52
906.5, 0.0338, 92.50
907.0, 0.0338, 92.52
907.5, 0.0339, 92.49
908.0, 0.0338, 92.50
908.5, 0.0339, 92.49
909.0, 0.0339, 92.49
909.5, 0.0339, 92.48
910.0, 0.0339, 92.49
910.5, 0.0340, 92.48
911.0, 0.0340, 92.48
911.5, 0.0340, 92.47
912.0, 0.0340, 92.46
912.5, 0.0340, 92.47
913.0, 0.0340, 92.46
913.5, 0.0341, 92.46
914.0, 0.0341, 92.44
914.5, 0.0342, 92.43
915.0, 0.0342, 92.44
915.5, 0.0343, 92.41
916.0, 0.0343, 92.41
916.5, 0.0344, 92.39
917.0, 0.0343, 92.41
917.5, 0.0344, 92.38
918.0, 0.0344, 92.39
918.5, 0.0345, 92.36
919.0, 0.0344, 92.38
919.5, 0.0346, 92.35
920.0, 0.0346, 92.35
920.5, 0.0347, 92.32
921.0, 0.0347, 92.32
921.5, 0.0347, 92.31
922.0, 0.0349, 92.28
922.5, 0.0349, 92.27
923.0, 0.0350, 92.26
923.5, 0.0351, 92.24
924.0, 0.0352, 92.22
924.5, 0.0353, 92.20
925.0, 0.0353, 92.19
925.5, 0.0354, 92.17
926.0, 0.0355, 92.16
926.5, 0.0356, 92.13
927.0, 0.0357, 92.10
927.5, 0.0357, 92.10
928.0, 0.0358, 92.10
928.5, 0.0360, 92.05
929.0, 0.0360, 92.05
929.5, 0.0362, 92.00
930.0, 0.0363, 91.98
930.5, 0.0364, 91.95
931.0, 0.0365, 91.93
931.5, 0.0366, 91.91
932.0, 0.0369, 91.86
932.5, 0.0369, 91.86
933.0, 0.0371, 91.80
933.5, 0.0372, 91.80
934.0, 0.0374, 91.74
934.5, 0.0375, 91.73
935.0, 0.0377, 91.70
935.5, 0.0378, 91.66
936.0, 0.0380, 91.63
936.5, 0.0382, 91.59
937.0, 0.0383, 91.55
937.5, 0.0385, 91.51
938.0, 0.0386, 91.49
938.5, 0.0389, 91.43
939.0, 0.0390, 91.42
939.5, 0.0393, 91.35
940.0, 0.0394, 91.33
940.5, 0.0396, 91.28
941.0, 0.0398, 91.24
941.5, 0.0400, 91.20
942.0, 0.0402, 91.16
942.5, 0.0404, 91.12
943.0, 0.0407, 91.06
943.5, 0.0408, 91.02
944.0, 0.0411, 90.96
944.5, 0.0412, 90.95
945.0, 0.0415, 90.88
945.5, 0.0417, 90.84
946.0, 0.0420, 90.79
946.5, 0.0422, 90.73
947.0, 0.0423, 90.72
947.5, 0.0427, 90.63
948.0, 0.0429, 90.60
948.5, 0.0433, 90.51
949.0, 0.0435, 90.48
949.5, 0.0438, 90.41
950.0, 0.0441, 90.34
950.5, 0.0445, 90.27
951.0, 0.0447, 90.21
951.5, 0.0452, 90.12
952.0, 0.0455, 90.06
952.5, 0.0458, 89.98
953.0, 0.0463, 89.88
953.5, 0.0466, 89.82
954.0, 0.0470, 89.73
954.5, 0.0474, 89.67
955.0, 0.0478, 89.57
955.5, 0.0481, 89.52
956.0, 0.0485, 89.44
956.5, 0.0487, 89.39
957.0, 0.0490, 89.33
957.5, 0.0494, 89.26
958.0, 0.0495, 89.23
958.5, 0.0499, 89.15
959.0, 0.0501, 89.11
959.5, 0.0503, 89.05
960.0, 0.0505, 89.02
960.5, 0.0506, 89.00
961.0, 0.0509, 88.95
961.5, 0.0509, 88.93
962.0, 0.0512, 88.88
962.5, 0.0512, 88.89
963.0, 0.0513, 88.85
963.5, 0.0513, 88.85
964.0, 0.0514, 88.84
964.5, 0.0515, 88.82
965.0, 0.0515, 88.82
965.5, 0.0516, 88.81
966.0, 0.0516, 88.79
966.5, 0.0517, 88.78
967.0, 0.0517, 88.78
967.5, 0.0517, 88.77
968.0, 0.0517, 88.77
968.5, 0.0518, 88.75
969.0, 0.0518, 88.75
969.5, 0.0519, 88.74
970.0, 0.0519, 88.74
970.5, 0.0519, 88.73
971.0, 0.0519, 88.73
971.5, 0.0514, 88.83
972.0, 0.0515, 88.82
972.5, 0.0515, 88.81
973.0, 0.0515, 88.83
973.5, 0.0515, 88.81
974.0, 0.0515, 88.82
974.5, 0.0516, 88.80
975.0, 0.0515, 88.81
975.5, 0.0516, 88.80
976.0, 0.0515, 88.82
976.5, 0.0515, 88.82
977.0, 0.0515, 88.81
977.5, 0.0515, 88.82
978.0, 0.0515, 88.81
978.5, 0.0514, 88.83
979.0, 0.0515, 88.82
979.5, 0.0514, 88.84
980.0, 0.0514, 88.84
980.5, 0.0513, 88.85
981.0, 0.0513, 88.86
981.5, 0.0512, 88.87
982.0, 0.0511, 88.89
982.5, 0.0512, 88.88
983.0, 0.0510, 88.91
983.5, 0.0510, 88.91
984.0, 0.0509, 88.94
984.5, 0.0509, 88.95
985.0, 0.0508, 88.96
985.5, 0.0507, 88.97
986.0, 0.0506, 89.00
986.5, 0.0505, 89.01
987.0, 0.0504, 89.04
987.5, 0.0503, 89.06
988.0, 0.0503, 89.06
988.5, 0.0501, 89.10
989.0, 0.0501, 89.10
989.5, 0.0500, 89.13
990.0, 0.0500, 89.13
990.5, 0.0497, 89.18
991.0, 0.0497, 89.19
991.5, 0.0496, 89.21
992.0, 0.0494, 89.25
992.5, 0.0494, 89.25
993.0, 0.0492, 89.28
993.5, 0.0492, 89.29
994.0, 0.0490, 89.33
994.5, 0.0489, 89.34
995.0, 0.0488, 89.36
995.5, 0.0487, 89.40
996.0, 0.0486, 89.41
996.5, 0.0484, 89.45
997.0, 0.0484, 89.45
997.5, 0.0483, 89.48
998.0, 0.0482, 89.50
998.5, 0.0480, 89.53
999.0, 0.0480, 89.54
999.5, 0.0478, 89.58
1000.0, 0.0478, 89.58
1000.5, 0.0475, 89.63
1001.0, 0.0474, 89.66
1001.5, 0.0473, 89.67
1002.0, 0.0472, 89.71
1002.5, 0.0471, 89.72
1003.0, 0.0469, 89.77
1003.5, 0.0468, 89.79
1004.0, 0.0466, 89.83
1004.5, 0.0466, 89.83
1005.0, 0.0464, 89.86
1005.5, 0.0463, 89.89
1006.0, 0.0461, 89.93
1006.5, 0.0459, 89.97
1007.0, 0.0459, 89.97
1007.5, 0.0457, 90.00
1008.0, 0.0456, 90.02
1008.5, 0.0454, 90.06
1009.0, 0.0453, 90.10
1009.5, 0.0452, 90.11
1010.0, 0.0450, 90.16
1010.5, 0.0449, 90.17
1011.0, 0.0447, 90.21
1011.5, 0.0447, 90.23
1012.0, 0.0446, 90.24
1012.5, 0.0445, 90.27
1013.0, 0.0443, 90.29
1013.5, 0.0441, 90.35
1014.0, 0.0439, 90.38
1014.5, 0.0438, 90.40
1015.0, 0.0438, 90.42
1015.5, 0.0432, 90.53
1016.0, 0.0431, 90.55
1016.5, 0.0430, 90.57
1017.0, 0.0429, 90.60
1017.5, 0.0429, 90.60
1018.0, 0.0427, 90.64
1018.5, 0.0426, 90.66
1019.0, 0.0424, 90.70
1019.5, 0.0424, 90.69
1020.0, 0.0423, 90.73
1020.5, 0.0421, 90.77
1021.0, 0.0421, 90.76
1021.5, 0.0419, 90.81
1022.0, 0.0420, 90.79
1022.5, 0.0417, 90.84
1023.0, 0.0416, 90.86
1023.5, 0.0414, 90.90
1024.0, 0.0414, 90.90
1024.5, 0.0413, 90.93
1025.0, 0.0412, 90.96
1025.5, 0.0410, 90.98
1026.0, 0.0408, 91.03
1026.5, 0.0408, 91.03
1027.0, 0.0406, 91.07
1027.5, 0.0406, 91.08
1028.0, 0.0404, 91.12
1028.5, 0.0403, 91.15
1029.0, 0.0402, 91.16
1029.5, 0.0400, 91.19
1030.0, 0.0400, 91.19
1030.5, 0.0399, 91.22
1031.0, 0.0398, 91.25
1031.5, 0.0396, 91.28
1032.0, 0.0396, 91.29
1032.5, 0.0395, 91.30
1033.0, 0.0394, 91.33
1033.5, 0.0393, 91.35
1034.0, 0.0393, 91.36
1034.5, 0.0392, 91.37
1035.0, 0.0391, 91.40
1035.5, 0.0390, 91.42
1036.0, 0.0389, 91.43
1036.5, 0.0388, 91.46
1037.0, 0.0387, 91.48
1037.5, 0.0386, 91.50
1038.0, 0.0384, 91.54
1038.5, 0.0384, 91.54
1039.0, 0.0383, 91.57
1039.5, 0.0382, 91.59
1040.0, 0.0380, 91.62
1040.5, 0.0379, 91.65
1041.0, 0.0380, 91.63
1041.5, 0.0378, 91.66
1042.0, 0.0378, 91.65
1042.5, 0.0377, 91.69
1043.0, 0.0377, 91.69
1043.5, 0.0375, 91.73
1044.0, 0.0374, 91.75
1044.5, 0.0374, 91.76
1045.0, 0.0373, 91.78
1045.5, 0.0368, 91.88
1046.0, 0.0368, 91.88
1046.5, 0.0368, 91.87
1047.0, 0.0368, 91.88
1047.5, 0.0368, 91.88
1048.0, 0.0366, 91.91
1048.5, 0.0366, 91.92
1049.0, 0.0365, 91.93
1049.5, 0.0365, 91.93
1050.0, 0.0365, 91.93
1050.5, 0.0364, 91.95
1051.0, 0.0365, 91.95
1051.5, 0.0363, 91.97
1052.0, 0.0364, 91.97
1052.5, 0.0364, 91.97
1053.0, 0.0362, 91.99
1053.5, 0.0363, 91.98
1054.0, 0.0361, 92.02
1054.5, 0.0361, 92.02
1055.0, 0.0362, 92.01
1055.5, 0.0360, 92.05
1056.0, 0.0360, 92.05
1056.5, 0.0361, 92.03
1057.0, 0.0360, 92.04
1057.5, 0.0359, 92.07
1058.0, 0.0359, 92.06
1058.5, 0.0358, 92.08
1059.0, 0.0358, 92.08
1059.5, 0.0356, 92.13
1060.0, 0.0358, 92.08
1060.5, 0.0356, 92.12
1061.0, 0.0357, 92.12
1061.5, 0.0356, 92.12
1062.0, 0.0357, 92.11
1062.5, 0.0356, 92.12
1063.0, 0.0356, 92.14
1063.5, 0.0356, 92.13
1064.0, 0.0356, 92.13
1064.5, 0.0357, 92.11
1065.0, 0.0356, 92.13
1065.5, 0.0355, 92.16
1066.0, 0.0355, 92.15
1066.5, 0.0356, 92.13
1067.0, 0.0356, 92.14
1067.5, 0.0355, 92.16
1068.0, 0.0356, 92.14
1068.5, 0.0354, 92.17
1069.0, 0.0355, 92.16
1069.5, 0.0355, 92.14
1070.0, 0.0355, 92.14
1070.5, 0.0355, 92.15
1071.0, 0.0355, 92.14
1071.5, 0.0354, 92.17
1072.0, 0.0354, 92.18
1072.5, 0.0351, 92.24
1073.0, 0.0353, 92.20
1073.5, 0.0351, 92.23
1074.0, 0.0352, 92.21
1074.5, 0.0352, 92.21
1075.0, 0.0352, 92.21
1075.5, 0.0353, 92.19
1076.0, 0.0353, 92.19
1076.5, 0.0354, 92.17
1077.0, 0.0354, 92.18
1077.5, 0.0354, 92.18
1078.0, 0.0354, 92.18
1078.5, 0.0354, 92.17
1079.0, 0.0354, 92.17
1079.5, 0.0355, 92.16
1080.0, 0.0355, 92.15
1080.5, 0.0355, 92.15
1081.0, 0.0356, 92.13
1081.5, 0.0356, 92.13
1082.0, 0.0357, 92.11
1082.5, 0.0356, 92.12
1083.0, 0.0357, 92.12
1083.5, 0.0356, 92.12
1084.0, 0.0357, 92.11
1084.5, 0.0356, 92.12
1085.0, 0.0357, 92.12
1085.5, 0.0357, 92.10
1086.0, 0.0357, 92.11
1086.5, 0.0359, 92.07
1087.0, 0.0358, 92.09
1087.5, 0.0359, 92.07
1088.0, 0.0359, 92.06
1088.5, 0.0360, 92.05
1089.0, 0.0360, 92.05
1089.5, 0.0359, 92.06
1090.0, 0.0361, 92.02
1090.5, 0.0361, 92.03
1091.0, 0.0362, 92.00
1091.5, 0.0361, 92.02
1092.0, 0.0363, 91.98
1092.5, 0.0362, 92.00
1093.0, 0.0363, 91.98
1093.5, 0.0364, 91.95
1094.0, 0.0366, 91.91
1094.5, 0.0366, 91.92
1095.0, 0.0365, 91.94
1095.5, 0.0366, 91.92
1096.0, 0.0364, 91.96
1096.5, 0.0364, 91.97
1097.0, 0.0363, 91.98
1097.5, 0.0363, 91.99
1098.0, 0.0363, 91.98
1098.5, 0.0357, 92.11
1099.0, 0.0360, 92.04
1099.5, 0.0358, 92.09
1100.0, 0.0359, 92.06
