Sample Name, Sample-3
Time, March 10 13:44:13 2023
Operator, Smith
Lamp, 0
Slit,0.0
Scan From, 1100.0nm
Scan To, 190.0nm
Scan Step, 0.5nm
Sample Filter, 5
memo, 
WL(nm), Abs, T%
190.0, 1.9813, 1.04
190.5, 2.0198, 0.96
191.0, 2.0595, 0.87
191.5, 2.0886, 0.82
192.0, 2.1501, 0.71
192.5, 2.2071, 0.62
193.0, 2.2873, 0.52
193.5, 2.3262, 0.47
194.0, 2.3556, 0.44
194.5, 2.4014, 0.40
195.0, 2.3634, 0.43
195.5, 2.3698, 0.43
196.0, 2.3872, 0.41
196.5, 2.3927, 0.40
197.0, 2.4468, 0.36
197.5, 2.4582, 0.35
198.0, 2.4769, 0.33
198.5, 2.5091, 0.31
199.0, 2.5122, 0.31
199.5, 2.4850, 0.33
200.0, 2.4860, 0.33
200.5, 2.4815, 0.33
201.0, 2.4617, 0.35
201.5, 2.4624, 0.34
202.0, 2.4459, 0.36
202.5, 2.4518, 0.35
203.0, 2.4647, 0.34
203.5, 2.4369, 0.37
204.0, 2.4260, 0.37
204.5, 2.3986, 0.40
205.0, 2.3411, 0.46
205.5, 2.3174, 0.48
206.0, 2.2789, 0.53
206.5, 2.2416, 0.57
207.0, 2.2140, 0.61
207.5, 2.1856, 0.65
208.0, 2.1494, 0.71
208.5, 2.1174, 0.76
209.0, 2.0770, 0.84
209.5, 2.0333, 0.93
210.0, 1.9917, 1.02
210.5, 1.9544, 1.11
211.0, 1.9213, 1.20
211.5, 1.8843, 1.31
212.0, 1.8519, 1.41
212.5, 1.8251, 1.50
213.0, 1.7938, 1.61
213.5, 1.7619, 1.73
214.0, 1.7308, 1.86
214.5, 1.6996, 2.00
215.0, 1.6672, 2.15
215.5, 1.6365, 2.31
216.0, 1.6115, 2.45
216.5, 1.5837, 2.61
217.0, 1.5637, 2.73
217.5, 1.5361, 2.91
218.0, 1.5151, 3.05
218.5, 1.4909, 3.23
219.0, 1.4676, 3.41
219.5, 1.4456, 3.58
220.0, 1.4215, 3.79
220.5, 1.4002, 3.98
221.0, 1.3798, 4.17
221.5, 1.3603, 4.36
222.0, 1.3402, 4.57
222.5, 1.3223, 4.76
223.0, 1.3025, 4.98
223.5, 1.2838, 5.20
224.0, 1.2653, 5.43
224.5, 1.2469, 5.66
225.0, 1.2271, 5.93
225.5, 1.2089, 6.18
226.0, 1.1911, 6.44
226.5, 1.1727, 6.72
227.0, 1.1554, 6.99
227.5, 1.1379, 7.28
228.0, 1.1194, 7.60
228.5, 1.1013, 7.92
229.0, 1.0831, 8.26
229.5, 1.0641, 8.63
230.0, 1.0454, 9.01
230.5, 1.0264, 9.41
231.0, 1.0071, 9.84
231.5, 0.9886, 10.27
232.0, 0.9699, 10.72
232.5, 0.9510, 11.19
233.0, 0.9323, 11.69
233.5, 0.9133, 12.21
234.0, 0.8958, 12.71
234.5, 0.8781, 13.24
235.0, 0.8609, 13.78
235.5, 0.8444, 14.31
236.0, 0.8289, 14.83
236.5, 0.8138, 15.35
237.0, 0.7996, 15.86
237.5, 0.7854, 16.39
238.0, 0.7712, 16.94
238.5, 0.7579, 17.46
239.0, 0.7455, 17.97
239.5, 0.7343, 18.44
240.0, 0.7233, 18.91
240.5, 0.7134, 19.35
241.0, 0.7037, 19.78
241.5, 0.6950, 20.18
242.0, 0.6866, 20.58
242.5, 0.6779, 21.00
243.0, 0.6702, 21.37
243.5, 0.6625, 21.75
244.0, 0.6556, 22.10
244.5, 0.6488, 22.45
245.0, 0.6426, 22.77
245.5, 0.6366, 23.09
246.0, 0.6310, 23.39
246.5, 0.6257, 23.67
247.0, 0.6206, 23.96
247.5, 0.6156, 24.23
248.0, 0.6107, 24.51
248.5, 0.6061, 24.77
249.0, 0.6016, 25.02
249.5, 0.5974, 25.27
250.0, 0.5929, 25.53
250.5, 0.5891, 25.76
251.0, 0.5854, 25.98
251.5, 0.5817, 26.20
252.0, 0.5780, 26.43
252.5, 0.5746, 26.63
253.0, 0.5713, 26.84
253.5, 0.5679, 27.05
254.0, 0.5646, 27.26
254.5, 0.5606, 27.51
255.0, 0.5576, 27.69
255.5, 0.5547, 27.88
256.0, 0.5521, 28.05
256.5, 0.5493, 28.23
257.0, 0.5467, 28.40
257.5, 0.5441, 28.57
258.0, 0.5418, 28.72
258.5, 0.5393, 28.89
259.0, 0.5369, 29.04
259.5, 0.5348, 29.19
260.0, 0.5326, 29.34
260.5, 0.5305, 29.48
261.0, 0.5284, 29.62
261.5, 0.5263, 29.77
262.0, 0.5242, 29.91
262.5, 0.5223, 30.04
263.0, 0.5203, 30.18
263.5, 0.5185, 30.31
264.0, 0.5166, 30.43
264.5, 0.5150, 30.55
265.0, 0.5134, 30.66
265.5, 0.5118, 30.78
266.0, 0.5103, 30.88
266.5, 0.5089, 30.98
267.0, 0.5073, 31.09
267.5, 0.5056, 31.22
268.0, 0.5042, 31.32
268.5, 0.5026, 31.44
269.0, 0.5009, 31.55
269.5, 0.4995, 31.66
270.0, 0.4981, 31.76
270.5, 0.4970, 31.84
271.0, 0.4956, 31.94
271.5, 0.4942, 32.05
272.0, 0.4928, 32.15
272.5, 0.4913, 32.26
273.0, 0.4900, 32.36
273.5, 0.4886, 32.46
274.0, 0.4872, 32.57
274.5, 0.4857, 32.68
275.0, 0.4844, 32.78
275.5, 0.4831, 32.88
276.0, 0.4816, 32.99
276.5, 0.4801, 33.10
277.0, 0.4785, 33.22
277.5, 0.4769, 33.35
278.0, 0.4753, 33.47
278.5, 0.4738, 33.59
279.0, 0.4720, 33.73
279.5, 0.4702, 33.87
280.0, 0.4686, 33.99
280.5, 0.4669, 34.13
281.0, 0.4649, 34.28
281.5, 0.4633, 34.41
282.0, 0.4612, 34.58
282.5, 0.4591, 34.74
283.0, 0.4571, 34.91
283.5, 0.4550, 35.07
284.0, 0.4528, 35.25
284.5, 0.4506, 35.43
285.0, 0.4481, 35.64
285.5, 0.4457, 35.84
286.0, 0.4431, 36.05
286.5, 0.4404, 36.28
287.0, 0.4374, 36.53
287.5, 0.4345, 36.77
288.0, 0.4317, 37.01
288.5, 0.4290, 37.24
289.0, 0.4263, 37.47
289.5, 0.4237, 37.70
290.0, 0.4210, 37.93
290.5, 0.4184, 38.16
291.0, 0.4156, 38.40
291.5, 0.4130, 38.63
292.0, 0.4101, 38.90
292.5, 0.4072, 39.16
293.0, 0.4046, 39.40
293.5, 0.4019, 39.64
294.0, 0.3993, 39.88
294.5, 0.3966, 40.13
295.0, 0.3940, 40.36
295.5, 0.3916, 40.59
296.0, 0.3892, 40.81
296.5, 0.3866, 41.06
297.0, 0.3843, 41.28
297.5, 0.3818, 41.52
298.0, 0.3796, 41.73
298.5, 0.3775, 41.93
299.0, 0.3753, 42.14
299.5, 0.3734, 42.32
300.0, 0.3714, 42.52
300.5, 0.3695, 42.71
301.0, 0.3676, 42.90
301.5, 0.3656, 43.10
302.0, 0.3637, 43.28
302.5, 0.3618, 43.47
303.0, 0.3601, 43.64
303.5, 0.3584, 43.81
304.0, 0.3567, 43.98
304.5, 0.3552, 44.14
305.0, 0.3534, 44.32
305.5, 0.3519, 44.48
306.0, 0.3501, 44.66
306.5, 0.3486, 44.82
307.0, 0.3470, 44.98
307.5, 0.3455, 45.14
308.0, 0.3441, 45.28
308.5, 0.3426, 45.43
309.0, 0.3413, 45.57
309.5, 0.3399, 45.72
310.0, 0.3386, 45.86
310.5, 0.3372, 46.01
311.0, 0.3356, 46.17
311.5, 0.3342, 46.32
312.0, 0.3330, 46.45
312.5, 0.3318, 46.58
313.0, 0.3306, 46.71
313.5, 0.3294, 46.84
314.0, 0.3283, 46.96
314.5, 0.3271, 47.08
315.0, 0.3260, 47.21
315.5, 0.3248, 47.34
316.0, 0.3235, 47.48
316.5, 0.3222, 47.62
317.0, 0.3212, 47.73
317.5, 0.3200, 47.86
318.0, 0.3190, 47.98
318.5, 0.3180, 48.08
319.0, 0.3170, 48.20
319.5, 0.3159, 48.32
320.0, 0.3148, 48.44
320.5, 0.3135, 48.58
321.0, 0.3123, 48.72
321.5, 0.3112, 48.84
322.0, 0.3103, 48.95
322.5, 0.3092, 49.07
323.0, 0.3080, 49.20
323.5, 0.3072, 49.30
324.0, 0.3062, 49.41
324.5, 0.3052, 49.52
325.0, 0.3043, 49.62
325.5, 0.3032, 49.75
326.0, 0.3021, 49.87
326.5, 0.3011, 49.99
327.0, 0.3002, 50.10
327.5, 0.2993, 50.20
328.0, 0.2982, 50.33
328.5, 0.2974, 50.42
329.0, 0.2966, 50.52
329.5, 0.2955, 50.64
330.0, 0.2946, 50.75
330.5, 0.2935, 50.87
331.0, 0.2925, 50.99
331.5, 0.2917, 51.08
332.0, 0.2908, 51.19
332.5, 0.2900, 51.29
333.0, 0.2890, 51.40
333.5, 0.2883, 51.49
334.0, 0.2873, 51.60
334.5, 0.2864, 51.71
335.0, 0.2854, 51.83
335.5, 0.2844, 51.95
336.0, 0.2835, 52.06
336.5, 0.2828, 52.15
337.0, 0.2819, 52.25
337.5, 0.2811, 52.35
338.0, 0.2804, 52.43
338.5, 0.2795, 52.54
339.0, 0.2786, 52.66
339.5, 0.2777, 52.76
340.0, 0.2768, 52.87
340.5, 0.2760, 52.97
341.0, 0.2752, 53.07
341.5, 0.2743, 53.18
342.0, 0.2734, 53.29
342.5, 0.2727, 53.36
343.0, 0.2721, 53.44
343.5, 0.2714, 53.53
344.0, 0.2707, 53.62
344.5, 0.2697, 53.74
345.0, 0.2688, 53.85
345.5, 0.2682, 53.93
346.0, 0.2673, 54.04
346.5, 0.2662, 54.17
347.0, 0.2654, 54.27
347.5, 0.2649, 54.34
348.0, 0.2642, 54.42
348.5, 0.2636, 54.50
349.0, 0.2630, 54.58
349.5, 0.2621, 54.69
350.0, 0.2614, 54.78
350.5, 0.2604, 54.91
351.0, 0.2597, 55.00
351.5, 0.2587, 55.12
352.0, 0.2583, 55.17
352.5, 0.2576, 55.26
353.0, 0.2569, 55.35
353.5, 0.2563, 55.42
354.0, 0.2555, 55.53
354.5, 0.2547, 55.62
355.0, 0.2539, 55.74
355.5, 0.2532, 55.83
356.0, 0.2525, 55.92
356.5, 0.2517, 56.01
357.0, 0.2511, 56.09
357.5, 0.2505, 56.17
358.0, 0.2500, 56.24
358.5, 0.2494, 56.32
359.0, 0.2484, 56.44
359.5, 0.2477, 56.53
360.0, 0.2470, 56.62
360.5, 0.2462, 56.73
361.0, 0.2456, 56.81
361.5, 0.2450, 56.89
362.0, 0.2445, 56.95
362.5, 0.2437, 57.05
363.0, 0.2433, 57.11
363.5, 0.2427, 57.19
364.0, 0.2419, 57.29
364.5, 0.2412, 57.39
365.0, 0.2404, 57.49
365.5, 0.2397, 57.59
366.0, 0.2392, 57.65
366.5, 0.2387, 57.72
367.0, 0.2381, 57.79
367.5, 0.2376, 57.87
368.0, 0.2369, 57.95
368.5, 0.2363, 58.03
369.0, 0.2357, 58.12
369.5, 0.2352, 58.19
370.0, 0.2343, 58.31
370.5, 0.2329, 58.49
371.0, 0.2324, 58.56
371.5, 0.2318, 58.64
372.0, 0.2314, 58.69
372.5, 0.2309, 58.76
373.0, 0.2303, 58.84
373.5, 0.2295, 58.96
374.0, 0.2290, 59.03
374.5, 0.2285, 59.09
375.0, 0.2278, 59.18
375.5, 0.2271, 59.28
376.0, 0.2265, 59.35
376.5, 0.2261, 59.42
377.0, 0.2256, 59.49
377.5, 0.2251, 59.55
378.0, 0.2244, 59.65
378.5, 0.2238, 59.73
379.0, 0.2233, 59.80
379.5, 0.2228, 59.87
380.0, 0.2223, 59.94
380.5, 0.2216, 60.03
381.0, 0.2211, 60.10
381.5, 0.2207, 60.16
382.0, 0.2203, 60.21
382.5, 0.2196, 60.31
383.0, 0.2190, 60.40
383.5, 0.2185, 60.46
384.0, 0.2179, 60.55
384.5, 0.2174, 60.62
385.0, 0.2168, 60.70
385.5, 0.2163, 60.77
386.0, 0.2158, 60.84
386.5, 0.2155, 60.88
387.0, 0.2150, 60.96
387.5, 0.2143, 61.05
388.0, 0.2137, 61.14
388.5, 0.2132, 61.20
389.0, 0.2126, 61.29
389.5, 0.2122, 61.35
390.0, 0.2116, 61.43
390.5, 0.2112, 61.49
391.0, 0.2107, 61.56
391.5, 0.2104, 61.61
392.0, 0.2100, 61.66
392.5, 0.2094, 61.75
393.0, 0.2088, 61.82
393.5, 0.2084, 61.89
394.0, 0.2079, 61.96
394.5, 0.2074, 62.04
395.0, 0.2069, 62.10
395.5, 0.2063, 62.18
396.0, 0.2060, 62.24
396.5, 0.2056, 62.28
397.0, 0.2051, 62.36
397.5, 0.2045, 62.44
398.0, 0.2041, 62.50
398.5, 0.2035, 62.58
399.0, 0.2031, 62.65
399.5, 0.2026, 62.72
400.0, 0.2021, 62.78
400.5, 0.2016, 62.86
401.0, 0.2013, 62.91
401.5, 0.2009, 62.97
402.0, 0.2005, 63.02
402.5, 0.1999, 63.11
403.0, 0.1995, 63.17
403.5, 0.1989, 63.26
404.0, 0.1985, 63.31
404.5, 0.1981, 63.37
405.0, 0.1976, 63.44
405.5, 0.1972, 63.51
406.0, 0.1968, 63.56
406.5, 0.1964, 63.62
407.0, 0.1960, 63.69
407.5, 0.1954, 63.77
408.0, 0.1950, 63.83
408.5, 0.1946, 63.88
409.0, 0.1941, 63.95
409.5, 0.1937, 64.02
410.0, 0.1932, 64.09
410.5, 0.1930, 64.12
411.0, 0.1925, 64.19
411.5, 0.1921, 64.25
412.0, 0.1917, 64.31
412.5, 0.1913, 64.38
413.0, 0.1908, 64.45
413.5, 0.1904, 64.51
414.0, 0.1899, 64.59
414.5, 0.1895, 64.63
415.0, 0.1891, 64.70
415.5, 0.1888, 64.74
416.0, 0.1884, 64.80
416.5, 0.1879, 64.88
417.0, 0.1875, 64.93
417.5, 0.1871, 64.99
418.0, 0.1867, 65.06
418.5, 0.1862, 65.13
419.0, 0.1859, 65.18
419.5, 0.1854, 65.25
420.0, 0.1851, 65.30
420.5, 0.1848, 65.35
421.0, 0.1843, 65.41
421.5, 0.1839, 65.47
422.0, 0.1836, 65.53
422.5, 0.1831, 65.60
423.0, 0.1827, 65.65
423.5, 0.1823, 65.72
424.0, 0.1820, 65.76
424.5, 0.1816, 65.83
425.0, 0.1812, 65.89
425.5, 0.1809, 65.94
426.0, 0.1805, 66.00
426.5, 0.1801, 66.05
427.0, 0.1797, 66.11
427.5, 0.1793, 66.18
428.0, 0.1789, 66.23
428.5, 0.1785, 66.29
429.0, 0.1782, 66.35
429.5, 0.1779, 66.39
430.0, 0.1775, 66.45
430.5, 0.1772, 66.50
431.0, 0.1768, 66.56
431.5, 0.1764, 66.63
432.0, 0.1760, 66.68
432.5, 0.1756, 66.75
433.0, 0.1753, 66.78
433.5, 0.1750, 66.83
434.0, 0.1746, 66.90
434.5, 0.1742, 66.95
435.0, 0.1739, 67.00
435.5, 0.1735, 67.06
436.0, 0.1732, 67.11
436.5, 0.1728, 67.18
437.0, 0.1724, 67.24
437.5, 0.1721, 67.29
438.0, 0.1718, 67.33
438.5, 0.1714, 67.38
439.0, 0.1711, 67.44
439.5, 0.1708, 67.48
440.0, 0.1705, 67.53
440.5, 0.1701, 67.59
441.0, 0.1697, 67.66
441.5, 0.1694, 67.71
442.0, 0.1691, 67.76
442.5, 0.1687, 67.81
443.0, 0.1683, 67.87
443.5, 0.1679, 67.93
444.0, 0.1677, 67.97
444.5, 0.1674, 68.01
445.0, 0.1671, 68.06
445.5, 0.1667, 68.12
446.0, 0.1665, 68.16
446.5, 0.1660, 68.23
447.0, 0.1658, 68.27
447.5, 0.1655, 68.32
448.0, 0.1650, 68.38
448.5, 0.1647, 68.43
449.0, 0.1644, 68.48
449.5, 0.1642, 68.51
450.0, 0.1639, 68.57
450.5, 0.1635, 68.63
451.0, 0.1631, 68.69
451.5, 0.1630, 68.71
452.0, 0.1625, 68.79
452.5, 0.1621, 68.85
453.0, 0.1620, 68.87
453.5, 0.1615, 68.95
454.0, 0.1613, 68.98
454.5, 0.1607, 69.06
455.0, 0.1606, 69.09
455.5, 0.1603, 69.14
456.0, 0.1600, 69.19
456.5, 0.1598, 69.22
457.0, 0.1593, 69.30
457.5, 0.1591, 69.33
458.0, 0.1589, 69.37
458.5, 0.1586, 69.41
459.0, 0.1581, 69.48
459.5, 0.1578, 69.54
460.0, 0.1576, 69.57
460.5, 0.1573, 69.62
461.0, 0.1570, 69.66
461.5, 0.1567, 69.71
462.0, 0.1564, 69.75
462.5, 0.1561, 69.80
463.0, 0.1559, 69.84
463.5, 0.1555, 69.91
464.0, 0.1552, 69.95
464.5, 0.1549, 69.99
465.0, 0.1546, 70.04
465.5, 0.1544, 70.09
466.0, 0.1542, 70.12
466.5, 0.1538, 70.18
467.0, 0.1535, 70.23
467.5, 0.1533, 70.26
468.0, 0.1530, 70.31
468.5, 0.1527, 70.36
469.0, 0.1523, 70.42
469.5, 0.1520, 70.46
470.0, 0.1518, 70.50
470.5, 0.1516, 70.53
471.0, 0.1513, 70.58
471.5, 0.1510, 70.63
472.0, 0.1507, 70.68
472.5, 0.1505, 70.72
473.0, 0.1502, 70.77
473.5, 0.1498, 70.83
474.0, 0.1495, 70.88
474.5, 0.1493, 70.90
475.0, 0.1490, 70.95
475.5, 0.1487, 71.00
476.0, 0.1485, 71.03
476.5, 0.1482, 71.09
477.0, 0.1480, 71.13
477.5, 0.1478, 71.16
478.0, 0.1474, 71.22
478.5, 0.1471, 71.27
479.0, 0.1469, 71.30
479.5, 0.1466, 71.34
480.0, 0.1464, 71.38
480.5, 0.1461, 71.43
481.0, 0.1459, 71.46
481.5, 0.1457, 71.51
482.0, 0.1454, 71.55
482.5, 0.1451, 71.60
483.0, 0.1448, 71.64
483.5, 0.1445, 71.70
484.0, 0.1444, 71.72
484.5, 0.1440, 71.77
485.0, 0.1438, 71.82
485.5, 0.1435, 71.86
486.0, 0.1433, 71.90
486.5, 0.1430, 71.94
487.0, 0.1428, 71.98
487.5, 0.1426, 72.02
488.0, 0.1422, 72.07
488.5, 0.1420, 72.11
489.0, 0.1418, 72.15
489.5, 0.1415, 72.19
490.0, 0.1413, 72.22
490.5, 0.1410, 72.28
491.0, 0.1408, 72.31
491.5, 0.1405, 72.36
492.0, 0.1404, 72.38
492.5, 0.1401, 72.43
493.0, 0.1398, 72.48
493.5, 0.1395, 72.53
494.0, 0.1394, 72.55
494.5, 0.1391, 72.60
495.0, 0.1388, 72.64
495.5, 0.1386, 72.68
496.0, 0.1383, 72.72
496.5, 0.1381, 72.76
497.0, 0.1378, 72.80
497.5, 0.1376, 72.85
498.0, 0.1373, 72.89
498.5, 0.1371, 72.93
499.0, 0.1369, 72.97
499.5, 0.1367, 72.99
500.0, 0.1365, 73.03
500.5, 0.1362, 73.07
501.0, 0.1360, 73.12
501.5, 0.1358, 73.16
502.0, 0.1355, 73.20
502.5, 0.1352, 73.25
503.0, 0.1350, 73.28
503.5, 0.1349, 73.31
504.0, 0.1346, 73.35
504.5, 0.1344, 73.39
505.0, 0.1341, 73.43
505.5, 0.1339, 73.47
506.0, 0.1337, 73.50
506.5, 0.1336, 73.51
507.0, 0.1334, 73.55
507.5, 0.1331, 73.60
508.0, 0.1329, 73.64
508.5, 0.1327, 73.67
509.0, 0.1324, 73.71
509.5, 0.1323, 73.74
510.0, 0.1321, 73.78
510.5, 0.1319, 73.80
511.0, 0.1317, 73.85
511.5, 0.1314, 73.89
512.0, 0.1313, 73.92
512.5, 0.1311, 73.95
513.0, 0.1307, 74.01
513.5, 0.1306, 74.02
514.0, 0.1303, 74.07
514.5, 0.1301, 74.11
515.0, 0.1300, 74.14
515.5, 0.1297, 74.18
516.0, 0.1296, 74.21
516.5, 0.1294, 74.23
517.0, 0.1290, 74.29
517.5, 0.1288, 74.33
518.0, 0.1287, 74.36
518.5, 0.1285, 74.39
519.0, 0.1283, 74.42
519.5, 0.1281, 74.46
520.0, 0.1279, 74.49
520.5, 0.1277, 74.52
521.0, 0.1275, 74.56
521.5, 0.1273, 74.59
522.0, 0.1271, 74.63
522.5, 0.1268, 74.67
523.0, 0.1266, 74.71
523.5, 0.1265, 74.73
524.0, 0.1263, 74.77
524.5, 0.1260, 74.81
525.0, 0.1258, 74.85
525.5, 0.1257, 74.87
526.0, 0.1255, 74.91
526.5, 0.1253, 74.93
527.0, 0.1252, 74.96
527.5, 0.1249, 75.01
528.0, 0.1247, 75.05
528.5, 0.1244, 75.09
529.0, 0.1243, 75.12
529.5, 0.1241, 75.14
530.0, 0.1239, 75.18
530.5, 0.1237, 75.21
531.0, 0.1236, 75.23
531.5, 0.1233, 75.28
532.0, 0.1230, 75.33
532.5, 0.1228, 75.36
533.0, 0.1227, 75.39
533.5, 0.1225, 75.41
534.0, 0.1224, 75.44
534.5, 0.1221, 75.49
535.0, 0.1220, 75.51
535.5, 0.1218, 75.55
536.0, 0.1217, 75.57
536.5, 0.1214, 75.62
537.0, 0.1212, 75.64
537.5, 0.1211, 75.67
538.0, 0.1209, 75.70
538.5, 0.1207, 75.74
539.0, 0.1206, 75.76
539.5, 0.1203, 75.81
540.0, 0.1201, 75.83
540.5, 0.1200, 75.86
541.0, 0.1198, 75.89
541.5, 0.1196, 75.93
542.0, 0.1195, 75.95
542.5, 0.1194, 75.97
543.0, 0.1191, 76.02
543.5, 0.1190, 76.03
544.0, 0.1188, 76.07
544.5, 0.1185, 76.11
545.0, 0.1185, 76.13
545.5, 0.1182, 76.17
546.0, 0.1181, 76.19
546.5, 0.1178, 76.24
547.0, 0.1177, 76.25
547.5, 0.1176, 76.28
548.0, 0.1174, 76.31
548.5, 0.1173, 76.34
549.0, 0.1171, 76.37
549.5, 0.1169, 76.40
550.0, 0.1167, 76.43
550.5, 0.1165, 76.46
551.0, 0.1163, 76.50
551.5, 0.1162, 76.53
552.0, 0.1160, 76.55
552.5, 0.1159, 76.57
553.0, 0.1157, 76.61
553.5, 0.1156, 76.64
554.0, 0.1154, 76.67
554.5, 0.1152, 76.70
555.0, 0.1150, 76.73
555.5, 0.1149, 76.75
556.0, 0.1147, 76.78
556.5, 0.1145, 76.82
557.0, 0.1144, 76.84
557.5, 0.1142, 76.87
558.0, 0.1141, 76.90
558.5, 0.1140, 76.92
559.0, 0.1138, 76.94
559.5, 0.1137, 76.97
560.0, 0.1134, 77.02
560.5, 0.1132, 77.06
561.0, 0.1131, 77.08
561.5, 0.1129, 77.10
562.0, 0.1127, 77.14
562.5, 0.1126, 77.16
563.0, 0.1124, 77.20
563.5, 0.1123, 77.22
564.0, 0.1121, 77.25
564.5, 0.1120, 77.26
565.0, 0.1118, 77.30
565.5, 0.1117, 77.32
566.0, 0.1116, 77.35
566.5, 0.1114, 77.38
567.0, 0.1113, 77.38
567.5, 0.1111, 77.44
568.0, 0.1110, 77.44
568.5, 0.1108, 77.48
569.0, 0.1107, 77.49
569.5, 0.1105, 77.54
570.0, 0.1103, 77.57
570.5, 0.1101, 77.61
571.0, 0.1100, 77.63
571.5, 0.1099, 77.65
572.0, 0.1097, 77.67
572.5, 0.1095, 77.71
573.0, 0.1093, 77.74
573.5, 0.1094, 77.73
574.0, 0.1092, 77.77
574.5, 0.1090, 77.80
575.0, 0.1089, 77.83
575.5, 0.1087, 77.86
576.0, 0.1086, 77.87
576.5, 0.1085, 77.89
577.0, 0.1084, 77.91
577.5, 0.1082, 77.95
578.0, 0.1080, 77.98
578.5, 0.1073, 78.11
579.0, 0.1072, 78.12
579.5, 0.1071, 78.15
580.0, 0.1069, 78.18
580.5, 0.1067, 78.21
581.0, 0.1067, 78.22
581.5, 0.1065, 78.24
582.0, 0.1065, 78.26
582.5, 0.1063, 78.30
583.0, 0.1061, 78.32
583.5, 0.1060, 78.35
584.0, 0.1058, 78.38
584.5, 0.1057, 78.40
585.0, 0.1056, 78.42
585.5, 0.1056, 78.42
586.0, 0.1054, 78.45
586.5, 0.1051, 78.50
587.0, 0.1050, 78.53
587.5, 0.1050, 78.52
588.0, 0.1050, 78.53
588.5, 0.1047, 78.57
589.0, 0.1047, 78.58
589.5, 0.1043, 78.64
590.0, 0.1043, 78.65
590.5, 0.1041, 78.68
591.0, 0.1041, 78.69
591.5, 0.1039, 78.72
592.0, 0.1037, 78.76
592.5, 0.1036, 78.77
593.0, 0.1036, 78.78
593.5, 0.1034, 78.82
594.0, 0.1032, 78.85
594.5, 0.1030, 78.88
595.0, 0.1030, 78.89
595.5, 0.1029, 78.90
596.0, 0.1028, 78.93
596.5, 0.1025, 78.97
597.0, 0.1024, 78.99
597.5, 0.1023, 79.01
598.0, 0.1022, 79.02
598.5, 0.1022, 79.04
599.0, 0.1019, 79.08
599.5, 0.1019, 79.08
600.0, 0.1017, 79.12
600.5, 0.1017, 79.12
601.0, 0.1015, 79.16
601.5, 0.1014, 79.18
602.0, 0.1012, 79.21
602.5, 0.1010, 79.25
603.0, 0.1009, 79.28
603.5, 0.1008, 79.29
604.0, 0.1006, 79.32
604.5, 0.1006, 79.32
605.0, 0.1004, 79.36
605.5, 0.1003, 79.37
606.0, 0.1002, 79.40
606.5, 0.1000, 79.43
607.0, 0.1000, 79.44
607.5, 0.0999, 79.46
608.0, 0.0998, 79.47
608.5, 0.0996, 79.51
609.0, 0.0994, 79.54
609.5, 0.0993, 79.55
610.0, 0.0993, 79.56
610.5, 0.0991, 79.60
611.0, 0.0989, 79.63
611.5, 0.0989, 79.64
612.0, 0.0987, 79.68
612.5, 0.0986, 79.69
613.0, 0.0985, 79.71
613.5, 0.0984, 79.72
614.0, 0.0982, 79.77
614.5, 0.0982, 79.76
615.0, 0.0981, 79.79
615.5, 0.0979, 79.82
616.0, 0.0978, 79.84
616.5, 0.0977, 79.86
617.0, 0.0975, 79.88
617.5, 0.0974, 79.91
618.0, 0.0973, 79.92
618.5, 0.0972, 79.95
619.0, 0.0971, 79.97
619.5, 0.0970, 79.99
620.0, 0.0969, 80.01
620.5, 0.0967, 80.04
621.0, 0.0966, 80.05
621.5, 0.0965, 80.08
622.0, 0.0964, 80.10
622.5, 0.0963, 80.11
623.0, 0.0961, 80.14
623.5, 0.0960, 80.17
624.0, 0.0959, 80.19
624.5, 0.0958, 80.20
625.0, 0.0957, 80.23
625.5, 0.0956, 80.25
626.0, 0.0955, 80.27
626.5, 0.0954, 80.28
627.0, 0.0952, 80.32
627.5, 0.0951, 80.33
628.0, 0.0951, 80.33
628.5, 0.0949, 80.37
629.0, 0.0948, 80.39
629.5, 0.0947, 80.41
630.0, 0.0946, 80.43
630.5, 0.0944, 80.46
631.0, 0.0944, 80.47
631.5, 0.0942, 80.49
632.0, 0.0941, 80.52
632.5, 0.0939, 80.55
633.0, 0.0940, 80.54
633.5, 0.0939, 80.56
634.0, 0.0937, 80.59
634.5, 0.0936, 80.60
635.0, 0.0934, 80.64
635.5, 0.0934, 80.66
636.0, 0.0933, 80.67
636.5, 0.0932, 80.69
637.0, 0.0930, 80.72
637.5, 0.0929, 80.73
638.0, 0.0929, 80.74
638.5, 0.0927, 80.78
639.0, 0.0926, 80.80
639.5, 0.0925, 80.82
640.0, 0.0924, 80.83
640.5, 0.0923, 80.85
641.0, 0.0922, 80.87
641.5, 0.0921, 80.89
642.0, 0.0920, 80.92
642.5, 0.0919, 80.94
643.0, 0.0918, 80.94
643.5, 0.0917, 80.96
644.0, 0.0916, 80.98
644.5, 0.0915, 81.00
645.0, 0.0914, 81.02
645.5, 0.0912, 81.05
646.0, 0.0911, 81.07
646.5, 0.0910, 81.09
647.0, 0.0910, 81.10
647.5, 0.0908, 81.13
648.0, 0.0907, 81.14
648.5, 0.0906, 81.17
649.0, 0.0905, 81.19
649.5, 0.0904, 81.21
650.0, 0.0903, 81.23
650.5, 0.0902, 81.24
651.0, 0.0901, 81.27
651.5, 0.0900, 81.28
652.0, 0.0899, 81.30
652.5, 0.0899, 81.30
653.0, 0.0898, 81.32
653.5, 0.0897, 81.34
654.0, 0.0895, 81.37
654.5, 0.0894, 81.39
655.0, 0.0892, 81.42
655.5, 0.0893, 81.42
656.0, 0.0891, 81.45
656.5, 0.0891, 81.46
657.0, 0.0890, 81.48
657.5, 0.0888, 81.50
658.0, 0.0888, 81.51
658.5, 0.0886, 81.54
659.0, 0.0886, 81.55
659.5, 0.0884, 81.58
660.0, 0.0883, 81.59
660.5, 0.0883, 81.60
661.0, 0.0881, 81.63
661.5, 0.0881, 81.64
662.0, 0.0880, 81.65
662.5, 0.0878, 81.69
663.0, 0.0878, 81.69
663.5, 0.0877, 81.71
664.0, 0.0876, 81.73
664.5, 0.0875, 81.75
665.0, 0.0874, 81.77
665.5, 0.0873, 81.79
666.0, 0.0872, 81.81
666.5, 0.0871, 81.83
667.0, 0.0870, 81.85
667.5, 0.0869, 81.86
668.0, 0.0869, 81.87
668.5, 0.0867, 81.90
669.0, 0.0867, 81.90
669.5, 0.0865, 81.93
670.0, 0.0864, 81.95
670.5, 0.0865, 81.95
671.0, 0.0863, 81.98
671.5, 0.0863, 81.99
672.0, 0.0861, 82.01
672.5, 0.0860, 82.03
673.0, 0.0860, 82.03
673.5, 0.0858, 82.06
674.0, 0.0858, 82.07
674.5, 0.0857, 82.10
675.0, 0.0856, 82.11
675.5, 0.0854, 82.14
676.0, 0.0854, 82.15
676.5, 0.0854, 82.16
677.0, 0.0852, 82.19
677.5, 0.0851, 82.21
678.0, 0.0851, 82.21
678.5, 0.0850, 82.23
679.0, 0.0849, 82.25
679.5, 0.0847, 82.28
680.0, 0.0847, 82.29
680.5, 0.0846, 82.31
681.0, 0.0846, 82.30
681.5, 0.0845, 82.33
682.0, 0.0843, 82.36
682.5, 0.0841, 82.39
683.0, 0.0841, 82.40
683.5, 0.0841, 82.39
684.0, 0.0840, 82.42
684.5, 0.0839, 82.43
685.0, 0.0838, 82.45
685.5, 0.0838, 82.46
686.0, 0.0837, 82.47
686.5, 0.0836, 82.50
687.0, 0.0835, 82.51
687.5, 0.0833, 82.54
688.0, 0.0834, 82.53
688.5, 0.0832, 82.56
689.0, 0.0831, 82.58
689.5, 0.0831, 82.59
690.0, 0.0830, 82.61
690.5, 0.0829, 82.62
691.0, 0.0828, 82.64
691.5, 0.0827, 82.66
692.0, 0.0826, 82.68
692.5, 0.0825, 82.69
693.0, 0.0825, 82.70
693.5, 0.0824, 82.72
694.0, 0.0823, 82.74
694.5, 0.0822, 82.75
695.0, 0.0821, 82.78
695.5, 0.0821, 82.78
696.0, 0.0820, 82.79
696.5, 0.0819, 82.82
697.0, 0.0818, 82.83
697.5, 0.0818, 82.84
698.0, 0.0817, 82.85
698.5, 0.0816, 82.88
699.0, 0.0815, 82.89
699.5, 0.0814, 82.91
700.0, 0.0814, 82.91
700.5, 0.0812, 82.94
701.0, 0.0812, 82.95
701.5, 0.0810, 82.98
702.0, 0.0811, 82.97
702.5, 0.0809, 83.00
703.0, 0.0808, 83.02
703.5, 0.0808, 83.03
704.0, 0.0807, 83.04
704.5, 0.0807, 83.04
705.0, 0.0805, 83.08
705.5, 0.0805, 83.07
706.0, 0.0804, 83.11
706.5, 0.0804, 83.11
707.0, 0.0803, 83.12
707.5, 0.0802, 83.15
708.0, 0.0801, 83.15
708.5, 0.0800, 83.17
709.0, 0.0800, 83.17
709.5, 0.0799, 83.20
710.0, 0.0798, 83.21
710.5, 0.0792, 83.32
711.0, 0.0791, 83.35
711.5, 0.0791, 83.35
712.0, 0.0790, 83.36
712.5, 0.0790, 83.37
713.0, 0.0789, 83.38
713.5, 0.0788, 83.41
714.0, 0.0788, 83.41
714.5, 0.0787, 83.42
715.0, 0.0787, 83.42
715.5, 0.0786, 83.45
716.0, 0.0786, 83.45
716.5, 0.0785, 83.47
717.0, 0.0785, 83.47
717.5, 0.0784, 83.48
718.0, 0.0784, 83.49
718.5, 0.0783, 83.51
719.0, 0.0782, 83.53
719.5, 0.0782, 83.53
720.0, 0.0781, 83.54
720.5, 0.0781, 83.54
721.0, 0.0780, 83.57
721.5, 0.0779, 83.58
722.0, 0.0778, 83.59
722.5, 0.0778, 83.60
723.0, 0.0778, 83.61
723.5, 0.0777, 83.62
724.0, 0.0777, 83.62
724.5, 0.0776, 83.64
725.0, 0.0776, 83.64
725.5, 0.0775, 83.66
726.0, 0.0774, 83.67
726.5, 0.0774, 83.68
727.0, 0.0774, 83.68
727.5, 0.0773, 83.70
728.0, 0.0773, 83.70
728.5, 0.0772, 83.72
729.0, 0.0772, 83.72
729.5, 0.0771, 83.73
730.0, 0.0771, 83.73
730.5, 0.0770, 83.76
731.0, 0.0770, 83.74
731.5, 0.0770, 83.75
732.0, 0.0769, 83.77
732.5, 0.0769, 83.77
733.0, 0.0768, 83.80
733.5, 0.0768, 83.79
734.0, 0.0767, 83.80
734.5, 0.0767, 83.81
735.0, 0.0767, 83.81
735.5, 0.0766, 83.83
736.0, 0.0766, 83.84
736.5, 0.0765, 83.84
737.0, 0.0765, 83.86
737.5, 0.0764, 83.87
738.0, 0.0764, 83.87
738.5, 0.0763, 83.89
739.0, 0.0762, 83.90
739.5, 0.0761, 83.92
740.0, 0.0760, 83.94
740.5, 0.0760, 83.95
741.0, 0.0760, 83.95
741.5, 0.0759, 83.96
742.0, 0.0758, 83.98
742.5, 0.0758, 83.99
743.0, 0.0757, 84.01
743.5, 0.0757, 84.01
744.0, 0.0756, 84.02
744.5, 0.0755, 84.04
745.0, 0.0754, 84.06
745.5, 0.0754, 84.07
746.0, 0.0754, 84.07
746.5, 0.0753, 84.09
747.0, 0.0751, 84.11
747.5, 0.0751, 84.12
748.0, 0.0750, 84.14
748.5, 0.0750, 84.15
749.0, 0.0749, 84.16
749.5, 0.0748, 84.17
750.0, 0.0747, 84.19
750.5, 0.0747, 84.19
751.0, 0.0746, 84.21
751.5, 0.0746, 84.22
752.0, 0.0745, 84.24
752.5, 0.0745, 84.25
753.0, 0.0744, 84.26
753.5, 0.0743, 84.27
754.0, 0.0743, 84.27
754.5, 0.0741, 84.31
755.0, 0.0741, 84.30
755.5, 0.0741, 84.32
756.0, 0.0740, 84.34
756.5, 0.0739, 84.35
757.0, 0.0739, 84.35
757.5, 0.0738, 84.38
758.0, 0.0737, 84.39
758.5, 0.0736, 84.41
759.0, 0.0736, 84.41
759.5, 0.0735, 84.43
760.0, 0.0734, 84.45
760.5, 0.0734, 84.45
761.0, 0.0733, 84.47
761.5, 0.0733, 84.48
762.0, 0.0732, 84.49
762.5, 0.0732, 84.49
763.0, 0.0730, 84.53
763.5, 0.0731, 84.51
764.0, 0.0728, 84.56
764.5, 0.0729, 84.55
765.0, 0.0728, 84.56
765.5, 0.0728, 84.58
766.0, 0.0727, 84.58
766.5, 0.0726, 84.61
767.0, 0.0726, 84.61
767.5, 0.0725, 84.62
768.0, 0.0725, 84.63
768.5, 0.0723, 84.66
769.0, 0.0723, 84.67
769.5, 0.0722, 84.69
770.0, 0.0722, 84.68
770.5, 0.0721, 84.70
771.0, 0.0721, 84.70
771.5, 0.0720, 84.72
772.0, 0.0719, 84.73
772.5, 0.0719, 84.74
773.0, 0.0718, 84.76
773.5, 0.0717, 84.78
774.0, 0.0716, 84.80
774.5, 0.0716, 84.80
775.0, 0.0715, 84.82
775.5, 0.0715, 84.82
776.0, 0.0714, 84.84
776.5, 0.0713, 84.86
777.0, 0.0712, 84.89
777.5, 0.0711, 84.90
778.0, 0.0711, 84.90
778.5, 0.0710, 84.91
779.0, 0.0709, 84.93
779.5, 0.0709, 84.94
780.0, 0.0709, 84.95
780.5, 0.0708, 84.96
781.0, 0.0707, 84.98
781.5, 0.0706, 85.00
782.0, 0.0705, 85.01
782.5, 0.0705, 85.02
783.0, 0.0704, 85.03
783.5, 0.0703, 85.05
784.0, 0.0703, 85.06
784.5, 0.0702, 85.08
785.0, 0.0702, 85.07
785.5, 0.0701, 85.10
786.0, 0.0700, 85.12
786.5, 0.0699, 85.13
787.0, 0.0698, 85.15
787.5, 0.0698, 85.15
788.0, 0.0698, 85.16
788.5, 0.0696, 85.19
789.0, 0.0696, 85.20
789.5, 0.0696, 85.20
790.0, 0.0695, 85.21
790.5, 0.0693, 85.25
791.0, 0.0693, 85.26
791.5, 0.0693, 85.25
792.0, 0.0692, 85.28
792.5, 0.0692, 85.28
793.0, 0.0691, 85.30
793.5, 0.0691, 85.30
794.0, 0.0690, 85.31
794.5, 0.0690, 85.32
795.0, 0.0689, 85.33
795.5, 0.0689, 85.34
796.0, 0.0688, 85.35
796.5, 0.0687, 85.37
797.0, 0.0686, 85.38
797.5, 0.0686, 85.39
798.0, 0.0686, 85.39
798.5, 0.0685, 85.41
799.0, 0.0684, 85.43
799.5, 0.0684, 85.42
800.0, 0.0683, 85.46
800.5, 0.0676, 85.58
801.0, 0.0675, 85.60
801.5, 0.0676, 85.59
802.0, 0.0675, 85.61
802.5, 0.0675, 85.61
803.0, 0.0675, 85.61
803.5, 0.0673, 85.64
804.0, 0.0673, 85.65
804.5, 0.0673, 85.64
805.0, 0.0673, 85.64
805.5, 0.0672, 85.66
806.0, 0.0672, 85.67
806.5, 0.0671, 85.68
807.0, 0.0671, 85.69
807.5, 0.0671, 85.69
808.0, 0.0670, 85.70
808.5, 0.0670, 85.71
809.0, 0.0670, 85.71
809.5, 0.0669, 85.73
810.0, 0.0669, 85.73
810.5, 0.0668, 85.74
811.0, 0.0667, 85.76
811.5, 0.0666, 85.78
812.0, 0.0667, 85.77
812.5, 0.0666, 85.79
813.0, 0.0665, 85.80
813.5, 0.0665, 85.80
814.0, 0.0665, 85.80
814.5, 0.0665, 85.81
815.0, 0.0664, 85.82
815.5, 0.0663, 85.84
816.0, 0.0663, 85.84
816.5, 0.0662, 85.86
817.0, 0.0662, 85.86
817.5, 0.0663, 85.85
818.0, 0.0661, 85.89
818.5, 0.0661, 85.87
819.0, 0.0661, 85.89
819.5, 0.0661, 85.88
820.0, 0.0660, 85.90
820.5, 0.0660, 85.91
821.0, 0.0659, 85.91
821.5, 0.0658, 85.95
822.0, 0.0658, 85.93
822.5, 0.0657, 85.95
823.0, 0.0658, 85.95
823.5, 0.0657, 85.96
824.0, 0.0658, 85.95
824.5, 0.0656, 85.98
825.0, 0.0656, 85.98
825.5, 0.0655, 85.99
826.0, 0.0656, 85.99
826.5, 0.0655, 85.99
827.0, 0.0656, 85.99
827.5, 0.0655, 85.99
828.0, 0.0655, 86.00
828.5, 0.0656, 85.98
829.0, 0.0654, 86.01
829.5, 0.0655, 86.01
830.0, 0.0654, 86.02
830.5, 0.0654, 86.02
831.0, 0.0654, 86.02
831.5, 0.0654, 86.02
832.0, 0.0654, 86.03
832.5, 0.0653, 86.03
833.0, 0.0654, 86.02
833.5, 0.0653, 86.04
834.0, 0.0654, 86.03
834.5, 0.0653, 86.05
835.0, 0.0653, 86.05
835.5, 0.0651, 86.08
836.0, 0.0652, 86.07
836.5, 0.0651, 86.08
837.0, 0.0651, 86.09
837.5, 0.0651, 86.08
838.0, 0.0651, 86.08
838.5, 0.0650, 86.09
839.0, 0.0650, 86.09
839.5, 0.0650, 86.10
840.0, 0.0649, 86.12
840.5, 0.0649, 86.13
841.0, 0.0648, 86.13
841.5, 0.0649, 86.12
842.0, 0.0648, 86.13
842.5, 0.0648, 86.14
843.0, 0.0648, 86.15
843.5, 0.0647, 86.15
844.0, 0.0648, 86.14
844.5, 0.0647, 86.17
845.0, 0.0646, 86.17
845.5, 0.0646, 86.18
846.0, 0.0645, 86.19
846.5, 0.0645, 86.20
847.0, 0.0645, 86.20
847.5, 0.0645, 86.19
848.0, 0.0645, 86.21
848.5, 0.0645, 86.21
849.0, 0.0644, 86.23
849.5, 0.0643, 86.23
850.0, 0.0643, 86.24
850.5, 0.0642, 86.27
851.0, 0.0642, 86.27
851.5, 0.0641, 86.28
852.0, 0.0641, 86.28
852.5, 0.0640, 86.29
853.0, 0.0640, 86.29
853.5, 0.0640, 86.30
854.0, 0.0640, 86.31
854.5, 0.0639, 86.31
855.0, 0.0639, 86.31
855.5, 0.0639, 86.32
856.0, 0.0638, 86.34
856.5, 0.0638, 86.33
857.0, 0.0638, 86.34
857.5, 0.0638, 86.35
858.0, 0.0638, 86.34
858.5, 0.0637, 86.36
859.0, 0.0637, 86.37
859.5, 0.0636, 86.37
860.0, 0.0636, 86.37
860.5, 0.0636, 86.39
861.0, 0.0636, 86.38
861.5, 0.0635, 86.40
862.0, 0.0635, 86.39
862.5, 0.0635, 86.40
863.0, 0.0635, 86.40
863.5, 0.0635, 86.40
864.0, 0.0634, 86.42
864.5, 0.0634, 86.42
865.0, 0.0633, 86.43
865.5, 0.0633, 86.43
866.0, 0.0632, 86.45
866.5, 0.0633, 86.44
867.0, 0.0633, 86.45
867.5, 0.0633, 86.45
868.0, 0.0632, 86.46
868.5, 0.0632, 86.47
869.0, 0.0632, 86.47
869.5, 0.0631, 86.47
870.0, 0.0631, 86.49
870.5, 0.0630, 86.49
871.0, 0.0631, 86.48
871.5, 0.0630, 86.50
872.0, 0.0630, 86.50
872.5, 0.0630, 86.50
873.0, 0.0630, 86.50
873.5, 0.0629, 86.53
874.0, 0.0629, 86.51
874.5, 0.0628, 86.53
875.0, 0.0629, 86.51
875.5, 0.0629, 86.53
876.0, 0.0628, 86.53
876.5, 0.0629, 86.52
877.0, 0.0627, 86.55
877.5, 0.0628, 86.53
878.0, 0.0627, 86.55
878.5, 0.0627, 86.55
879.0, 0.0627, 86.56
879.5, 0.0626, 86.57
880.0, 0.0627, 86.56
880.5, 0.0627, 86.57
881.0, 0.0626, 86.58
881.5, 0.0626, 86.58
882.0, 0.0626, 86.58
882.5, 0.0626, 86.58
883.0, 0.0625, 86.59
883.5, 0.0625, 86.60
884.0, 0.0625, 86.61
884.5, 0.0625, 86.60
885.0, 0.0625, 86.60
885.5, 0.0625, 86.61
886.0, 0.0624, 86.62
886.5, 0.0624, 86.62
887.0, 0.0624, 86.62
887.5, 0.0624, 86.62
888.0, 0.0624, 86.62
888.5, 0.0623, 86.64
889.0, 0.0623, 86.63
889.5, 0.0622, 86.65
890.0, 0.0622, 86.65
890.5, 0.0622, 86.66
891.0, 0.0622, 86.66
891.5, 0.0621, 86.67
892.0, 0.0621, 86.67
892.5, 0.0621, 86.68
893.0, 0.0621, 86.67
893.5, 0.0621, 86.67
894.0, 0.0621, 86.69
894.5, 0.0620, 86.69
895.0, 0.0620, 86.71
895.5, 0.0620, 86.69
896.0, 0.0619, 86.72
896.5, 0.0619, 86.71
897.0, 0.0619, 86.72
897.5, 0.0619, 86.72
898.0, 0.0619, 86.72
898.5, 0.0619, 86.72
899.0, 0.0618, 86.73
899.5, 0.0618, 86.74
900.0, 0.0618, 86.75
900.5, 0.0617, 86.75
901.0, 0.0617, 86.75
901.5, 0.0617, 86.76
902.0, 0.0617, 86.75
902.5, 0.0617, 86.76
903.0, 0.0617, 86.76
903.5, 0.0616, 86.77
904.0, 0.0616, 86.77
904.5, 0.0617, 86.77
905.0, 0.0616, 86.78
905.5, 0.0616, 86.78
906.0, 0.0616, 86.78
906.5, 0.0616, 86.79
907.0, 0.0615, 86.79
907.5, 0.0616, 86.78
908.0, 0.0615, 86.80
908.5, 0.0615, 86.80
909.0, 0.0614, 86.81
909.5, 0.0615, 86.80
910.0, 0.0614, 86.82
910.5, 0.0615, 86.80
911.0, 0.0615, 86.80
911.5, 0.0614, 86.82
912.0, 0.0614, 86.81
912.5, 0.0613, 86.83
913.0, 0.0614, 86.82
913.5, 0.0614, 86.82
914.0, 0.0614, 86.81
914.5, 0.0614, 86.82
915.0, 0.0614, 86.82
915.5, 0.0614, 86.82
916.0, 0.0614, 86.81
916.5, 0.0614, 86.82
917.0, 0.0614, 86.82
917.5, 0.0614, 86.82
918.0, 0.0614, 86.81
918.5, 0.0614, 86.81
919.0, 0.0613, 86.83
919.5, 0.0614, 86.81
920.0, 0.0614, 86.82
920.5, 0.0615, 86.80
921.0, 0.0615, 86.80
921.5, 0.0615, 86.79
922.0, 0.0615, 86.79
922.5, 0.0616, 86.78
923.0, 0.0616, 86.77
923.5, 0.0617, 86.76
924.0, 0.0617, 86.76
924.5, 0.0618, 86.74
925.0, 0.0618, 86.75
925.5, 0.0619, 86.71
926.0, 0.0618, 86.73
926.5, 0.0620, 86.70
927.0, 0.0620, 86.69
927.5, 0.0621, 86.68
928.0, 0.0621, 86.67
928.5, 0.0622, 86.65
929.0, 0.0623, 86.64
929.5, 0.0623, 86.63
930.0, 0.0625, 86.60
930.5, 0.0625, 86.60
931.0, 0.0626, 86.58
931.5, 0.0626, 86.57
932.0, 0.0628, 86.53
932.5, 0.0629, 86.52
933.0, 0.0630, 86.50
933.5, 0.0631, 86.48
934.0, 0.0632, 86.46
934.5, 0.0633, 86.44
935.0, 0.0634, 86.42
935.5, 0.0635, 86.39
936.0, 0.0637, 86.36
936.5, 0.0638, 86.33
937.0, 0.0640, 86.31
937.5, 0.0641, 86.27
938.0, 0.0642, 86.25
938.5, 0.0645, 86.21
939.0, 0.0645, 86.20
939.5, 0.0647, 86.15
940.0, 0.0649, 86.13
940.5, 0.0651, 86.09
941.0, 0.0653, 86.05
941.5, 0.0654, 86.03
942.0, 0.0655, 86.00
942.5, 0.0656, 85.97
943.0, 0.0659, 85.93
943.5, 0.0660, 85.90
944.0, 0.0663, 85.85
944.5, 0.0664, 85.83
945.0, 0.0665, 85.80
945.5, 0.0668, 85.75
946.0, 0.0670, 85.71
946.5, 0.0672, 85.67
947.0, 0.0673, 85.64
947.5, 0.0676, 85.58
948.0, 0.0678, 85.55
948.5, 0.0681, 85.48
949.0, 0.0683, 85.45
949.5, 0.0686, 85.38
950.0, 0.0688, 85.35
950.5, 0.0692, 85.28
951.0, 0.0694, 85.23
951.5, 0.0698, 85.16
952.0, 0.0701, 85.10
952.5, 0.0704, 85.04
953.0, 0.0708, 84.96
953.5, 0.0710, 84.91
954.0, 0.0714, 84.84
954.5, 0.0717, 84.78
955.0, 0.0722, 84.68
955.5, 0.0724, 84.65
956.0, 0.0728, 84.57
956.5, 0.0729, 84.54
957.0, 0.0733, 84.47
957.5, 0.0735, 84.44
958.0, 0.0737, 84.39
958.5, 0.0740, 84.34
959.0, 0.0741, 84.31
959.5, 0.0743, 84.27
960.0, 0.0744, 84.25
960.5, 0.0746, 84.22
961.0, 0.0747, 84.19
961.5, 0.0748, 84.17
962.0, 0.0749, 84.15
962.5, 0.0750, 84.14
963.0, 0.0750, 84.13
963.5, 0.0751, 84.12
964.0, 0.0751, 84.11
964.5, 0.0752, 84.10
965.0, 0.0751, 84.11
965.5, 0.0752, 84.10
966.0, 0.0753, 84.08
966.5, 0.0753, 84.08
967.0, 0.0753, 84.08
967.5, 0.0752, 84.10
968.0, 0.0753, 84.08
968.5, 0.0753, 84.08
969.0, 0.0753, 84.08
969.5, 0.0753, 84.08
970.0, 0.0753, 84.09
970.5, 0.0752, 84.10
971.0, 0.0753, 84.09
971.5, 0.0746, 84.21
972.0, 0.0747, 84.21
972.5, 0.0747, 84.20
973.0, 0.0746, 84.22
973.5, 0.0746, 84.22
974.0, 0.0746, 84.22
974.5, 0.0746, 84.21
975.0, 0.0745, 84.23
975.5, 0.0746, 84.21
976.0, 0.0745, 84.23
976.5, 0.0745, 84.23
977.0, 0.0744, 84.25
977.5, 0.0745, 84.25
978.0, 0.0744, 84.25
978.5, 0.0744, 84.26
979.0, 0.0743, 84.27
979.5, 0.0742, 84.29
980.0, 0.0742, 84.30
980.5, 0.0741, 84.31
981.0, 0.0741, 84.32
981.5, 0.0740, 84.33
982.0, 0.0739, 84.35
982.5, 0.0738, 84.38
983.0, 0.0737, 84.39
983.5, 0.0736, 84.41
984.0, 0.0736, 84.42
984.5, 0.0734, 84.45
985.0, 0.0734, 84.44
985.5, 0.0733, 84.47
986.0, 0.0731, 84.50
986.5, 0.0731, 84.52
987.0, 0.0728, 84.56
987.5, 0.0728, 84.57
988.0, 0.0727, 84.58
988.5, 0.0726, 84.61
989.0, 0.0725, 84.63
989.5, 0.0723, 84.67
990.0, 0.0722, 84.67
990.5, 0.0721, 84.70
991.0, 0.0720, 84.72
991.5, 0.0719, 84.75
992.0, 0.0716, 84.80
992.5, 0.0716, 84.81
993.0, 0.0714, 84.84
993.5, 0.0714, 84.84
994.0, 0.0712, 84.88
994.5, 0.0710, 84.91
995.0, 0.0709, 84.93
995.5, 0.0708, 84.95
996.0, 0.0707, 84.97
996.5, 0.0705, 85.02
997.0, 0.0704, 85.04
997.5, 0.0703, 85.06
998.0, 0.0700, 85.11
998.5, 0.0699, 85.12
999.0, 0.0698, 85.15
999.5, 0.0696, 85.20
1000.0, 0.0695, 85.21
1000.5, 0.0693, 85.25
1001.0, 0.0692, 85.27
1001.5, 0.0690, 85.31
1002.0, 0.0688, 85.35
1002.5, 0.0687, 85.37
1003.0, 0.0684, 85.43
1003.5, 0.0685, 85.42
1004.0, 0.0681, 85.48
1004.5, 0.0682, 85.47
1005.0, 0.0679, 85.54
1005.5, 0.0679, 85.53
1006.0, 0.0676, 85.59
1006.5, 0.0674, 85.63
1007.0, 0.0673, 85.65
1007.5, 0.0671, 85.68
1008.0, 0.0670, 85.70
1008.5, 0.0668, 85.74
1009.0, 0.0666, 85.78
1009.5, 0.0664, 85.82
1010.0, 0.0664, 85.83
1010.5, 0.0662, 85.87
1011.0, 0.0660, 85.90
1011.5, 0.0658, 85.94
1012.0, 0.0657, 85.96
1012.5, 0.0655, 86.00
1013.0, 0.0654, 86.02
1013.5, 0.0652, 86.06
1014.0, 0.0649, 86.11
1014.5, 0.0649, 86.12
1015.0, 0.0646, 86.17
1015.5, 0.0641, 86.28
1016.0, 0.0639, 86.32
1016.5, 0.0638, 86.34
1017.0, 0.0635, 86.40
1017.5, 0.0635, 86.39
1018.0, 0.0634, 86.42
1018.5, 0.0633, 86.43
1019.0, 0.0631, 86.48
1019.5, 0.0631, 86.48
1020.0, 0.0628, 86.53
1020.5, 0.0627, 86.56
1021.0, 0.0626, 86.57
1021.5, 0.0624, 86.62
1022.0, 0.0623, 86.63
1022.5, 0.0622, 86.66
1023.0, 0.0621, 86.67
1023.5, 0.0618, 86.74
1024.0, 0.0618, 86.73
1024.5, 0.0616, 86.79
1025.0, 0.0615, 86.79
1025.5, 0.0613, 86.84
1026.0, 0.0611, 86.87
1026.5, 0.0610, 86.90
1027.0, 0.0608, 86.94
1027.5, 0.0607, 86.95
1028.0, 0.0605, 86.99
1028.5, 0.0605, 87.00
1029.0, 0.0603, 87.04
1029.5, 0.0602, 87.06
1030.0, 0.0601, 87.07
1030.5, 0.0599, 87.11
1031.0, 0.0597, 87.15
1031.5, 0.0596, 87.17
1032.0, 0.0594, 87.21
1032.5, 0.0595, 87.19
1033.0, 0.0594, 87.22
1033.5, 0.0592, 87.25
1034.0, 0.0590, 87.30
1034.5, 0.0590, 87.30
1035.0, 0.0589, 87.31
1035.5, 0.0587, 87.35
1036.0, 0.0587, 87.35
1036.5, 0.0585, 87.41
1037.0, 0.0584, 87.42
1037.5, 0.0583, 87.43
1038.0, 0.0581, 87.49
1038.5, 0.0580, 87.50
1039.0, 0.0577, 87.55
1039.5, 0.0578, 87.55
1040.0, 0.0575, 87.60
1040.5, 0.0573, 87.65
1041.0, 0.0573, 87.64
1041.5, 0.0570, 87.70
1042.0, 0.0572, 87.67
1042.5, 0.0569, 87.71
1043.0, 0.0570, 87.70
1043.5, 0.0569, 87.72
1044.0, 0.0567, 87.75
1044.5, 0.0568, 87.74
1045.0, 0.0565, 87.80
1045.5, 0.0558, 87.94
1046.0, 0.0558, 87.93
1046.5, 0.0557, 87.96
1047.0, 0.0558, 87.94
1047.5, 0.0557, 87.96
1048.0, 0.0557, 87.95
1048.5, 0.0556, 87.97
1049.0, 0.0554, 88.01
1049.5, 0.0555, 88.01
1050.0, 0.0553, 88.04
1050.5, 0.0553, 88.05
1051.0, 0.0552, 88.06
1051.5, 0.0550, 88.10
1052.0, 0.0552, 88.07
1052.5, 0.0551, 88.08
1053.0, 0.0551, 88.08
1053.5, 0.0551, 88.09
1054.0, 0.0550, 88.11
1054.5, 0.0548, 88.15
1055.0, 0.0547, 88.16
1055.5, 0.0548, 88.16
1056.0, 0.0546, 88.19
1056.5, 0.0546, 88.19
1057.0, 0.0546, 88.19
1057.5, 0.0546, 88.19
1058.0, 0.0545, 88.20
1058.5, 0.0544, 88.24
1059.0, 0.0542, 88.26
1059.5, 0.0540, 88.31
1060.0, 0.0541, 88.29
1060.5, 0.0541, 88.28
1061.0, 0.0539, 88.33
1061.5, 0.0539, 88.34
1062.0, 0.0539, 88.34
1062.5, 0.0539, 88.32
1063.0, 0.0539, 88.34
1063.5, 0.0538, 88.35
1064.0, 0.0539, 88.33
1064.5, 0.0537, 88.37
1065.0, 0.0538, 88.34
1065.5, 0.0536, 88.39
1066.0, 0.0536, 88.38
1066.5, 0.0537, 88.38
1067.0, 0.0537, 88.37
1067.5, 0.0538, 88.34
1068.0, 0.0537, 88.37
1068.5, 0.0537, 88.38
1069.0, 0.0536, 88.38
1069.5, 0.0536, 88.40
1070.0, 0.0535, 88.41
1070.5, 0.0535, 88.42
1071.0, 0.0535, 88.41
1071.5, 0.0534, 88.42
1072.0, 0.0535, 88.41
1072.5, 0.0531, 88.49
1073.0, 0.0531, 88.49
1073.5, 0.0530, 88.50
1074.0, 0.0530, 88.50
1074.5, 0.0530, 88.51
1075.0, 0.0531, 88.50
1075.5, 0.0530, 88.52
1076.0, 0.0530, 88.51
1076.5, 0.0530, 88.52
1077.0, 0.0532, 88.47
1077.5, 0.0532, 88.47
1078.0, 0.0531, 88.49
1078.5, 0.0531, 88.48
1079.0, 0.0530, 88.51
1079.5, 0.0532, 88.48
1080.0, 0.0530, 88.50
1080.5, 0.0529, 88.53
1081.0, 0.0532, 88.47
1081.5, 0.0533, 88.46
1082.0, 0.0535, 88.41
1082.5, 0.0535, 88.41
1083.0, 0.0535, 88.41
1083.5, 0.0536, 88.38
1084.0, 0.0537, 88.38
1084.5, 0.0538, 88.34
1085.0, 0.0539, 88.32
1085.5, 0.0541, 88.28
1086.0, 0.0542, 88.26
1086.5, 0.0544, 88.23
1087.0, 0.0546, 88.19
1087.5, 0.0543, 88.24
1088.0, 0.0544, 88.23
1088.5, 0.0542, 88.28
1089.0, 0.0543, 88.25
1089.5, 0.0543, 88.26
1090.0, 0.0542, 88.27
1090.5, 0.0542, 88.28
1091.0, 0.0544, 88.23
1091.5, 0.0545, 88.21
1092.0, 0.0546, 88.18
1092.5, 0.0544, 88.23
1093.0, 0.0544, 88.22
1093.5, 0.0546, 88.19
1094.0, 0.0546, 88.18
1094.5, 0.0548, 88.16
1095.0, 0.0547, 88.16
1095.5, 0.0550, 88.10
1096.0, 0.0553, 88.04
1096.5, 0.0556, 87.99
1097.0, 0.0562, 87.87
1097.5, 0.0570, 87.70
1098.0, 0.0585, 87.40
1098.5, 0.0588, 87.34
1099.0, 0.0595, 87.19
1099.5, 0.0598, 87.14
1100.0, 0.0602, 87.05
